Time(s),Position(V)
0.343000,-1.055862
3.356000,-1.042292
6.356000,-1.027739
9.356000,-1.013831
12.356000,-0.993003
15.355000,-0.966491
18.355000,-0.949605
21.355000,-0.920367
24.355000,-0.892957
27.355000,-0.866730
30.353000,-0.834687
33.353000,-0.803075
36.353000,-0.773894
39.354000,-0.738856
42.354000,-0.702539
45.354000,-0.665825
48.352000,-0.626878
51.352000,-0.581060
54.352000,-0.541898
57.352000,-0.495556
60.353000,-0.453641
63.351000,-0.405076
66.351000,-0.352922
69.351000,-0.299108
72.351000,-0.243208
75.351000,-0.186722
78.351000,-0.140738
81.350000,-0.081665
84.350000,-0.024602
87.350000,0.034144
90.350000,0.095698
93.350000,0.157599
96.348000,0.216179
99.348000,0.282400
102.348000,0.346834
105.349000,0.412960
108.349000,0.479749
111.347000,0.543299
114.347000,0.612841
117.347000,0.684658
120.347000,0.757006
123.347000,0.821436
126.346000,0.892457
129.346000,0.965807
132.346000,1.036305
135.346000,1.109370
138.346000,1.172688
141.346000,1.245104
144.344000,1.321180
147.345000,1.398389
150.345000,1.474720
153.345000,1.545150
156.345000,1.622124
159.343000,1.693071
162.344000,1.775811
165.344000,1.854318
168.342000,1.933162
171.343000,2.010329
174.343000,2.088262
177.343000,2.155415
180.343000,2.228809
183.341000,2.301279
186.341000,2.354617
189.341000,2.423024
192.342000,2.484384
195.342000,2.549661
198.340000,2.615767
201.340000,2.678521
204.340000,2.743066
207.340000,2.808193
210.340000,2.879731
213.341000,2.946208
216.339000,3.017386
219.339000,3.088570
222.338000,3.151926
225.338000,3.216621
228.338000,3.273304
231.338000,3.329079
234.338000,3.382107
237.337000,3.430614
240.337000,3.478764
243.337000,3.526462
246.337000,3.570787
249.337000,3.621082
252.337000,3.670456
255.335000,3.727842
258.336000,3.774340
261.336000,3.825356
264.336000,3.867785
267.336000,3.908476
270.334000,3.947533
273.334000,3.986440
276.334000,4.011630
279.335000,4.046171
282.335000,4.072935
285.333000,4.100301
288.333000,4.122846
291.333000,4.148084
294.333000,4.160478
297.333000,4.175130
300.333000,4.203346
303.332000,4.224473
306.332000,4.245723
309.332000,4.261170
312.332000,4.278140
315.332000,4.293163
318.330000,4.306577
321.330000,4.313257
324.331000,4.320885
327.331000,4.335636
330.331000,4.337682
333.329000,4.344070
336.329000,4.339052
339.329000,4.338770
342.329000,4.337308
345.330000,4.327847
348.330000,4.328099
351.328000,4.305190
354.328000,4.296253
357.328000,4.281414
360.328000,4.264991
363.328000,4.251363
366.326000,4.229552
369.327000,4.210100
372.327000,4.190006
375.327000,4.169963
378.327000,4.145861
381.325000,4.126592
384.325000,4.102721
387.325000,4.081098
390.326000,4.054762
393.326000,4.031503
396.324000,4.006568
399.324000,3.978583
402.324000,3.947526
405.324000,3.917913
408.324000,3.883681
411.325000,3.849713
414.323000,3.807975
417.323000,3.766637
420.323000,3.721502
423.323000,3.672605
426.323000,3.624319
429.321000,3.579405
432.321000,3.534858
435.322000,3.493069
438.322000,3.452459
441.322000,3.412661
444.322000,3.370926
447.320000,3.327977
450.320000,3.284655
453.320000,3.241750
456.321000,3.196558
459.321000,3.149339
462.319000,3.099357
465.319000,3.043939
468.319000,2.987011
471.319000,2.930591
474.319000,2.872293
477.318000,2.814336
480.318000,2.761787
483.318000,2.710880
486.318000,2.659681
489.318000,2.611402
492.316000,2.562286
495.316000,2.514469
498.316000,2.469695
501.317000,2.426172
504.317000,2.380146
507.317000,2.329056
510.315000,2.282028
513.315000,2.230948
516.315000,2.183192
519.315000,2.134100
522.316000,2.083792
525.314000,2.034673
528.314000,1.984833
531.314000,1.933148
534.314000,1.883145
537.314000,1.836406
540.312000,1.789024
543.313000,1.740565
546.313000,1.694241
549.313000,1.649874
552.313000,1.605501
555.312000,1.563202
558.312000,1.518475
561.312000,1.477868
564.310000,1.437568
567.311000,1.399076
570.311000,1.359822
573.311000,1.324315
576.311000,1.288182
579.311000,1.252205
582.309000,1.218775
585.309000,1.186222
588.310000,1.155708
591.310000,1.128948
594.310000,1.101497
597.308000,1.076416
600.308000,1.047656
603.308000,1.022585
606.308000,0.999928
609.308000,0.979640
612.307000,0.955776
615.307000,0.937956
618.307000,0.915937
621.307000,0.900912
624.307000,0.885152
627.305000,0.869769
630.305000,0.853159
633.306000,0.843624
636.306000,0.835941
639.305000,0.827279
642.305000,0.821160
645.305000,0.812203
648.305000,0.820817
651.303000,0.806189
654.304000,0.811139
657.304000,0.798690
660.304000,0.799128
663.304000,0.816136
666.304000,0.804438
669.302000,0.815120
672.302000,0.825433
675.302000,0.831138
678.303000,0.837219
681.303000,0.842849
684.301000,0.856202
687.301000,0.870956
690.301000,0.883068
693.301000,0.890275
696.301000,0.902693
699.300000,0.920595
702.300000,0.939173
705.300000,0.956513
708.300000,0.977104
711.300000,0.994540
714.298000,1.015018
717.298000,1.034585
720.299000,1.060986
723.299000,1.085703
726.299000,1.113035
729.299000,1.139445
732.297000,1.163843
735.297000,1.191838
738.297000,1.197049
741.297000,1.233797
744.298000,1.260490
747.296000,1.289110
750.296000,1.319226
753.296000,1.348923
756.296000,1.384801
759.296000,1.419347
762.296000,1.454058
765.295000,1.487428
768.295000,1.520827
771.295000,1.556906
774.295000,1.596129
777.295000,1.632833
780.293000,1.671995
783.293000,1.707818
786.294000,1.746358
789.293000,1.785968
792.293000,1.822057
795.293000,1.861324
798.293000,1.903957
801.293000,1.945706
804.291000,1.985170
807.292000,2.025386
810.292000,2.065098
813.292000,2.105018
816.291000,2.143473
819.291000,2.179255
822.291000,2.218992
825.291000,2.259262
828.289000,2.298485
831.290000,2.334706
834.290000,2.372528
837.290000,2.405894
840.290000,2.441497
843.288000,2.471558
846.288000,2.506447
849.288000,2.534125
852.289000,2.571070
855.289000,2.604283
858.289000,2.636724
861.287000,2.670399
864.287000,2.705183
867.287000,2.737362
870.287000,2.771584
873.288000,2.802710
876.286000,2.825588
879.286000,2.869479
882.286000,2.904782
885.286000,2.936312
888.286000,2.972003
891.284000,3.005107
894.284000,3.039795
897.285000,3.073620
900.285000,3.104205
903.285000,3.135354
906.283000,3.165354
909.283000,3.194450
912.283000,3.221013
915.283000,3.244878
918.284000,3.268483
921.284000,3.293398
924.282000,3.301044
927.283000,3.319312
930.281000,3.347164
933.281000,3.365606
936.281000,3.382593
939.282000,3.398384
942.282000,3.415609
945.282000,3.427850
948.280000,3.441676
951.280000,3.448825
954.280000,3.467797
957.280000,3.477805
960.280000,3.483190
963.279000,3.500221
966.279000,3.508638
969.279000,3.519727
972.279000,3.520944
975.279000,3.526394
978.277000,3.534413
981.277000,3.535011
984.278000,3.538720
987.278000,3.545084
990.278000,3.550469
993.276000,3.550431
996.276000,3.550822
999.276000,3.550911
1002.276000,3.554429
1005.277000,3.542167
1008.277000,3.543904
1011.275000,3.540338
1014.275000,3.532047
1017.275000,3.530613
1020.275000,3.522542
1023.275000,3.516117
1026.273000,3.510641
1029.274000,3.500680
1032.274000,3.489720
1035.274000,3.481052
1038.274000,3.473954
1041.274000,3.462494
1044.272000,3.455328
1047.272000,3.439589
1050.273000,3.424553
1053.273000,3.410452
1056.273000,3.396133
1059.271000,3.378201
1062.271000,3.366395
1065.271000,3.352141
1068.271000,3.334416
1071.272000,3.317398
1074.270000,3.302233
1077.270000,3.285977
1080.270000,3.265244
1083.270000,3.245724
1086.270000,3.225990
1089.270000,3.203023
1092.268000,3.184112
1095.269000,3.163753
1098.269000,3.143856
1101.269000,3.118897
1104.269000,3.094356
1107.267000,3.066362
1110.267000,3.041196
1113.267000,3.012847
1116.268000,2.982810
1119.268000,2.953272
1122.266000,2.925223
1125.266000,2.894689
1128.266000,2.866531
1131.266000,2.838734
1134.266000,2.810549
1137.265000,2.784077
1140.265000,2.756052
1143.265000,2.728904
1146.265000,2.703595
1149.265000,2.677324
1152.265000,2.653936
1155.263000,2.626869
1158.263000,2.604728
1161.264000,2.578726
1164.264000,2.552839
1167.264000,2.530301
1170.262000,2.505090
1173.262000,2.480026
1176.262000,2.458868
1179.262000,2.436680
1182.263000,2.411102
1185.261000,2.388394
1188.261000,2.364091
1191.262000,2.339605
1194.260000,2.314816
1197.260000,2.294800
1200.260000,2.268736
1203.261000,2.245919
1206.261000,2.221708
1209.259000,2.200947
1212.259000,2.177777
1215.259000,2.155547
1218.259000,2.134573
1221.259000,2.110964
1224.257000,2.089516
1227.258000,2.067916
1230.258000,2.049260
1233.258000,2.025504
1236.258000,2.004683
1239.258000,1.985568
1242.256000,1.966714
1245.256000,1.947861
1248.257000,1.932237
1251.257000,1.912843
1254.257000,1.894421
1257.255000,1.880477
1260.255000,1.861654
1263.256000,1.848926
1266.254000,1.831368
1269.255000,1.818861
1272.255000,1.808860
1275.255000,1.795106
1278.255000,1.782270
1281.253000,1.772751
1284.253000,1.762029
1287.253000,1.749217
1290.253000,1.740290
1293.254000,1.732770
1296.254000,1.728273
1299.252000,1.717347
1302.252000,1.714593
1305.252000,1.706271
1308.252000,1.702042
1311.252000,1.696868
1314.251000,1.693078
1317.251000,1.710718
1320.251000,1.696212
1323.251000,1.689967
1326.251000,1.710051
1329.249000,1.692565
1332.249000,1.686126
1335.250000,1.691416
1338.250000,1.709569
1341.250000,1.693296
1344.248000,1.716718
1347.248000,1.721817
1350.248000,1.718822
1353.248000,1.728215
1356.248000,1.728324
1359.249000,1.739844
1362.247000,1.731053
1365.247000,1.743312
1368.246000,1.765881
1371.246000,1.769722
1374.246000,1.778003
1377.246000,1.789160
1380.247000,1.795048
1383.247000,1.811740
1386.245000,1.817009
1389.245000,1.829413
1392.245000,1.840431
1395.245000,1.854882
1398.245000,1.855164
1401.244000,1.877750
1404.244000,1.896216
1407.244000,1.912690
1410.244000,1.925227
1413.244000,1.946600
1416.242000,1.959344
1419.242000,1.977759
1422.242000,1.994070
1425.243000,2.010676
1428.243000,2.029818
1431.243000,2.043726
1434.242000,2.066009
1437.241000,2.079332
1440.241000,2.099959
1443.241000,2.120281
1446.242000,2.138061
1449.240000,2.155265
1452.240000,2.165120
1455.240000,2.194335
1458.240000,2.214647
1461.240000,2.231097
1464.238000,2.253829
1467.239000,2.271241
1470.240000,2.293385
1473.238000,2.310481
1476.238000,2.329627
1479.238000,2.343918
1482.238000,2.365474
1485.238000,2.382696
1488.236000,2.400363
1491.237000,2.420196
1494.237000,2.419509
1497.237000,2.452507
1500.237000,2.465572
1503.235000,2.470195
1506.236000,2.496894
1509.236000,2.516475
1512.235000,2.535866
1515.235000,2.544942
1518.235000,2.565325
1521.235000,2.587112
1524.235000,2.600928
1527.235000,2.617493
1530.233000,2.631870
1533.234000,2.649214
1536.234000,2.666724
1539.234000,2.680346
1542.234000,2.701967
1545.233000,2.713022
1548.233000,2.728663
1551.233000,2.747383
1554.231000,2.755855
1557.232000,2.778254
1560.232000,2.769109
1563.232000,2.798997
1566.232000,2.818368
1569.230000,2.826917
1572.230000,2.843316
1575.230000,2.859141
1578.231000,2.873469
1581.231000,2.884810
1584.229000,2.901212
1587.229000,2.913570
1590.229000,2.922541
1593.229000,2.935802
1596.229000,2.947785
1599.228000,2.954951
1602.228000,2.970830
1605.228000,2.963943
1608.228000,2.991999
1611.228000,2.993270
1614.228000,3.007500
1617.226000,3.015689
1620.226000,3.026785
1623.227000,3.030188
1626.227000,3.025470
1629.227000,3.043772
1632.225000,3.049606
1635.225000,3.037878
1638.225000,3.052438
1641.225000,3.062014
1644.226000,3.065733
1647.224000,3.055018
1650.225000,3.073871
1653.225000,3.078624
1656.223000,3.065145
1659.223000,3.069748
1662.223000,3.072868
1665.224000,3.073106
1668.224000,3.071893
1671.222000,3.061174
1674.222000,3.056575
1677.222000,3.051989
1680.222000,3.052506
1683.222000,3.048100
1686.220000,3.042402
1689.221000,3.041209
1692.221000,3.032489
1695.221000,3.027129
1698.221000,3.021241
1701.221000,3.013164
1704.219000,3.006606
1707.219000,2.998423
1710.220000,2.992794
1713.220000,2.983085
1716.220000,2.972244
1719.218000,2.962600
1722.218000,2.953432
1725.218000,2.944668
1728.218000,2.934748
1731.219000,2.922357
1734.217000,2.911588
1737.217000,2.901403
1740.217000,2.889175
1743.217000,2.875621
1746.217000,2.864400
1749.217000,2.852944
1752.215000,2.838401
1755.216000,2.827186
1758.216000,2.813207
1761.216000,2.801183
1764.216000,2.789255
1767.214000,2.779899
1770.214000,2.766556
1773.214000,2.752265
1776.215000,2.741190
1779.215000,2.727534
1782.215000,2.714630
1785.213000,2.703017
1788.213000,2.689382
1791.213000,2.676318
1794.213000,2.664209
1797.214000,2.650264
1800.212000,2.638308
1803.212000,2.626522
1806.212000,2.613220
1809.212000,2.599031
1812.212000,2.588051
1815.212000,2.573348
1818.210000,2.560488
1821.211000,2.548066
1824.211000,2.537246
1827.211000,2.523764
1830.209000,2.512654
1833.209000,2.499825
1836.209000,2.485292
1839.209000,2.474019
1842.210000,2.462230
1845.210000,2.454605
1848.208000,2.442088
1851.208000,2.429949
1854.208000,2.419220
1857.208000,2.404680
1860.208000,2.397106
1863.207000,2.384913
1866.207000,2.371835
1869.207000,2.360878
1872.207000,2.346737
1875.207000,2.338625
1878.205000,2.325354
1881.205000,2.314452
1884.205000,2.306263
1887.206000,2.299406
1890.206000,2.287062
1893.206000,2.275246
1896.204000,2.265462
1899.204000,2.264415
1902.204000,2.248625
1905.204000,2.236958
1908.205000,2.228972
1911.203000,2.218907
1914.203000,2.215864
1917.203000,2.207335
1920.202000,2.200390
1923.202000,2.188849
1926.202000,2.181703
1929.203000,2.175499
1932.203000,2.170692
1935.201000,2.162958
1938.201000,2.155915
1941.201000,2.153715
1944.201000,2.146134
1947.201000,2.143629
1950.199000,2.137405
1953.201000,2.138673
1956.200000,2.140852
1959.200000,2.127220
1962.200000,2.126853
1965.200000,2.122947
1968.198000,2.121087
1971.198000,2.140654
1974.199000,2.131914
1977.198000,2.113384
1980.198000,2.111004
1983.198000,2.128025
1986.198000,2.129528
1989.198000,2.111161
1992.196000,2.128233
1995.197000,2.140111
1998.197000,2.117766
2001.197000,2.137887
2004.197000,2.140250
2007.195000,2.125085
2010.195000,2.139917
2013.195000,2.135953
2016.195000,2.152865
2019.196000,2.138003
2022.194000,2.155102
2025.194000,2.152804
2028.194000,2.159219
2031.194000,2.174799
2034.194000,2.168639
2037.194000,2.179028
2040.193000,2.185813
2043.193000,2.190378
2046.193000,2.200097
2049.193000,2.189807
2052.193000,2.197473
2055.191000,2.215616
2058.191000,2.223425
2061.192000,2.230655
2064.192000,2.234864
2067.192000,2.235741
2070.190000,2.253217
2073.190000,2.265510
2076.190000,2.262515
2079.190000,2.269603
2082.190000,2.290214
2085.189000,2.298267
2088.189000,2.294538
2091.189000,2.316379
2094.189000,2.311229
2097.189000,2.331160
2100.189000,2.332387
2103.187000,2.342480
2106.188000,2.348875
2109.188000,2.373647
2112.188000,2.373293
2115.188000,2.384780
2118.186000,2.394322
2121.186000,2.405014
2124.186000,2.400819
2127.187000,2.423486
2130.187000,2.427708
2133.187000,2.440939
2136.185000,2.452871
2139.185000,2.461346
2142.185000,2.464263
2145.185000,2.471514
2148.185000,2.476467
2151.184000,2.492611
2154.184000,2.502354
2157.184000,2.510189
2160.184000,2.523444
2163.184000,2.527833
2166.182000,2.537739
2169.182000,2.549283
2172.183000,2.554549
2175.183000,2.563452
2178.183000,2.566906
2181.181000,2.588714
2184.181000,2.581582
2187.181000,2.597365
2190.181000,2.608295
2193.182000,2.619921
2196.180000,2.617602
2199.180000,2.631333
2202.180000,2.627049
2205.180000,2.647681
2208.180000,2.655234
2211.180000,2.667435
2214.178000,2.665837
2217.179000,2.679588
2220.179000,2.688257
2223.179000,2.699257
2226.179000,2.703751
2229.177000,2.696432
2232.177000,2.716547
2235.177000,2.714232
2238.178000,2.730930
2241.178000,2.719882
2244.178000,2.735655
2247.176000,2.746466
2250.176000,2.744579
2253.176000,2.743760
2256.176000,2.755675
2259.177000,2.753115
2262.175000,2.770500
2265.175000,2.769616
2268.175000,2.776085
2271.175000,2.762446
2274.175000,2.777139
2277.173000,2.783792
2280.173000,2.770303
2283.174000,2.790587
2286.174000,2.779760
2289.174000,2.776955
2292.172000,2.789880
2295.172000,2.797753
2298.172000,2.794466
2301.172000,2.787738
2304.173000,2.787569
2307.173000,2.787552
2310.171000,2.787198
2313.171000,2.779835
2316.171000,2.796111
2319.171000,2.778761
2322.171000,2.775007
2325.170000,2.771282
2328.170000,2.766907
2331.170000,2.775837
2334.170000,2.776612
2337.170000,2.756953
2340.168000,2.756793
2343.168000,2.754584
2346.168000,2.747445
2349.169000,2.746646
2352.169000,2.740517
2355.169000,2.746387
2358.167000,2.731409
2361.168000,2.726395
2364.167000,2.721065
2367.167000,2.717863
2370.168000,2.714623
2373.166000,2.706335
2376.166000,2.705536
2379.166000,2.699346
2382.166000,2.690980
2385.166000,2.683650
2388.164000,2.675645
2391.165000,2.674111
2394.165000,2.666514
2397.164000,2.658294
2400.164000,2.650832
2403.164000,2.644995
2406.164000,2.639651
2409.164000,2.636537
2412.163000,2.626441
2415.163000,2.620063
2418.163000,2.612170
2421.163000,2.604079
2424.163000,2.602665
2427.163000,2.590821
2430.161000,2.583346
2433.161000,2.579212
2436.162000,2.565040
2439.162000,2.559975
2442.162000,2.551891
2445.160000,2.551282
2448.160000,2.540176
2451.160000,2.531382
2454.160000,2.522451
2457.161000,2.516584
2460.159000,2.507704
2463.159000,2.501650
2466.159000,2.499451
2469.159000,2.486988
2472.159000,2.480264
2475.159000,2.471969
2478.158000,2.466306
2481.158000,2.461734
2484.158000,2.457253
2487.158000,2.449574
2490.158000,2.445386
2493.156000,2.433042
2496.156000,2.430238
2499.156000,2.420566
2502.157000,2.418795
2505.157000,2.408226
2508.155000,2.398939
2511.155000,2.391868
2514.155000,2.389723
2517.155000,2.381295
2520.155000,2.377967
2523.154000,2.374153
2526.154000,2.366440
2529.154000,2.360532
2532.154000,2.352210
2535.154000,2.346298
2538.154000,2.339900
2541.152000,2.338799
2544.153000,2.335114
2547.153000,2.329940
2550.153000,2.323641
2553.153000,2.319959
2556.151000,2.317692
2559.151000,2.316101
2562.151000,2.315971
2565.151000,2.311250
2568.152000,2.302469
2571.150000,2.309111
2574.150000,2.311675
2577.150000,2.305090
2580.150000,2.298974
2583.150000,2.294157
2586.150000,2.288436
2589.149000,2.287504
2592.149000,2.284237
2595.149000,2.287222
2598.149000,2.279992
2601.149000,2.286294
2604.147000,2.278747
2607.147000,2.277969
2610.148000,2.296805
2613.148000,2.278169
2616.148000,2.274586
2619.146000,2.289806
2622.146000,2.286083
2625.146000,2.299141
2628.146000,2.279890
2631.146000,2.295748
2634.147000,2.280026
2637.145000,2.299885
2640.145000,2.285652
2643.145000,2.306528
2646.145000,2.289595
2649.145000,2.294426
2652.143000,2.297927
2655.144000,2.303478
2658.144000,2.312620
2661.144000,2.300031
2664.144000,2.318586
2667.142000,2.305494
2670.142000,2.321026
2673.142000,2.302122
2676.143000,2.325959
2679.143000,2.328169
2682.143000,2.312854
2685.141000,2.337823
2688.141000,2.330813
2691.141000,2.323994
2694.141000,2.342168
2697.141000,2.337136
2700.140000,2.352754
2703.140000,2.343422
2706.141000,2.354960
2709.139000,2.349681
2712.139000,2.366906
2715.139000,2.354331
2718.139000,2.377199
2721.140000,2.382536
2724.138000,2.370387
2727.138000,2.386918
2730.138000,2.379926
2733.138000,2.401590
2736.138000,2.397062
2739.136000,2.391980
2742.137000,2.415654
2745.137000,2.410847
2748.137000,2.412016
2751.137000,2.415919
2754.135000,2.426083
2757.135000,2.424248
2760.135000,2.432777
2763.135000,2.443730
2766.136000,2.444383
2769.136000,2.450315
2772.134000,2.458960
2775.134000,2.457416
2778.134000,2.457423
2781.134000,2.464575
2784.134000,2.474570
2787.133000,2.473132
2790.133000,2.475753
2793.133000,2.486359
2796.133000,2.492332
2799.133000,2.486808
2802.133000,2.507140
2805.131000,2.493974
2808.132000,2.511750
2811.132000,2.506681
2814.132000,2.523376
2817.132000,2.515380
2820.130000,2.528241
2823.130000,2.523835
2826.130000,2.524498
2829.130000,2.540965
2832.131000,2.536073
2835.129000,2.548362
2838.129000,2.540044
2841.129000,2.551846
2844.129000,2.547607
2847.129000,2.559019
2850.127000,2.563663
2853.128000,2.562208
2856.128000,2.562817
2859.128000,2.581888
2862.128000,2.576214
2865.128000,2.574069
2868.126000,2.588979
2871.126000,2.572689
2874.127000,2.588754
2877.127000,2.581449
2880.127000,2.598178
2883.125000,2.584206
2886.125000,2.593398
2889.125000,2.598096
2892.125000,2.604895
2895.125000,2.597002
2898.124000,2.605708
2901.124000,2.594221
2904.124000,2.606523
2907.124000,2.597409
2910.124000,2.596825
2913.124000,2.613679
2916.122000,2.614162
2919.123000,2.616531
2922.123000,2.611697
2925.123000,2.605864
2928.123000,2.617103
2931.121000,2.601411
2934.121000,2.618972
2937.121000,2.602108
2940.122000,2.616164
2943.122000,2.622858
2946.120000,2.614335
2949.120000,2.601037
2952.120000,2.597746
2955.120000,2.596818
2958.120000,2.610623
2961.120000,2.609178
2964.119000,2.594561
2967.119000,2.593677
2970.119000,2.597165
2973.119000,2.604270
2976.119000,2.598858
2979.117000,2.596570
2982.117000,2.595740
2985.118000,2.590753
2988.118000,2.600517
2991.118000,2.583295
2994.116000,2.588931
2997.116000,2.583336
3000.116000,2.573392
3003.116000,2.572230
3006.117000,2.581779
3009.117000,2.571458
3012.115000,2.577540
3015.115000,2.578478
3018.115000,2.561130
3021.115000,2.566872
3024.115000,2.579348
3027.113000,2.557656
3030.114000,2.545506
3033.114000,2.542794
3036.114000,2.542580
3039.114000,2.539581
3042.112000,2.532769
3045.112000,2.532442
3048.112000,2.532306
3051.113000,2.528275
3054.113000,2.527615
3057.113000,2.515669
3060.111000,2.511053
3063.111000,2.511536
3066.111000,2.508272
3069.110000,2.502575
3072.112000,2.499889
3075.110000,2.498958
3078.110000,2.484394
3081.110000,2.481909
3084.110000,2.484292
3087.110000,2.479397
3090.108000,2.482708
3093.108000,2.466612
3096.109000,2.463260
3099.109000,2.461842
3102.109000,2.461183
3105.107000,2.458575
3108.107000,2.454992
3111.107000,2.449618
3114.107000,2.456995
3117.108000,2.441908
3120.108000,2.437312
3123.106000,2.430581
3126.107000,2.429547
3129.105000,2.426641
3132.105000,2.420478
3135.105000,2.419043
3138.106000,2.414960
3141.106000,2.416392
3144.106000,2.408015
3147.104000,2.400115
3150.104000,2.402947
3153.104000,2.414338
3156.104000,2.390828
3159.104000,2.390029
3162.103000,2.386840
3165.103000,2.384103
3168.103000,2.380480
3171.103000,2.378158
3174.103000,2.372994
3177.103000,2.378158
3180.101000,2.366331
3183.102000,2.370910
3186.102000,2.361320
3189.102000,2.355334
3192.102000,2.353349
3195.100000,2.352556
3198.100000,2.355385
3201.100000,2.349803
3204.101000,2.345278
3207.101000,2.340981
3210.099000,2.341716
3213.099000,2.337725
3216.099000,2.334278
3219.099000,2.328512
3222.099000,2.327074
3225.098000,2.333557
3228.099000,2.349184
3231.099000,2.341012
3234.097000,2.318541
3237.097000,2.318705
3240.097000,2.314431
3243.097000,2.327173
3246.097000,2.321234
3249.096000,2.308326
3252.096000,2.324120
3255.096000,2.327499
3258.096000,2.308051
3261.096000,2.310549
3264.096000,2.325990
3267.094000,2.311301
3270.095000,2.323148
3273.095000,2.316104
3276.095000,2.304437
3279.095000,2.317355
3282.093000,2.305423
3285.093000,2.298145
3288.093000,2.307150
3291.093000,2.312912
3294.094000,2.306218
3297.092000,2.309822
3300.092000,2.313986
3303.092000,2.304522
3306.092000,2.297985
3309.092000,2.302683
3312.092000,2.307585
3315.091000,2.309244
3318.091000,2.318354
3321.091000,2.303009
3324.091000,2.307602
3327.091000,2.311209
3330.089000,2.324300
3333.089000,2.325973
3336.090000,2.324147
3339.089000,2.316121
3342.089000,2.307153
3345.089000,2.325045
3348.089000,2.314285
3351.089000,2.328213
3354.087000,2.318106
3357.087000,2.323790
3360.088000,2.331793
3363.088000,2.316209
3366.088000,2.337534
3369.086000,2.325038
3372.086000,2.347073
3375.086000,2.332479
3378.086000,2.345917
3381.087000,2.343616
3384.085000,2.351452
3387.085000,2.336181
3390.085000,2.342922
3393.085000,2.350551
3396.085000,2.353967
3399.085000,2.350394
3402.084000,2.348837
3405.084000,2.359733
3408.084000,2.355718
3411.084000,2.365580
3414.084000,2.362027
3417.082000,2.372433
3420.082000,2.362615
3423.082000,2.380609
3426.083000,2.371335
3429.083000,2.368058
3432.081000,2.381278
3435.081000,2.370897
3438.081000,2.387928
3441.081000,2.385531
3444.081000,2.395971
3447.080000,2.393000
3450.080000,2.382778
3453.080000,2.403089
3456.080000,2.391001
3459.080000,2.401451
3462.080000,2.410140
3465.078000,2.408512
3468.079000,2.406547
3471.079000,2.412839
3474.079000,2.426464
3477.079000,2.413359
3480.077000,2.422031
3483.077000,2.421525
3486.077000,2.423860
3489.077000,2.433039
3492.078000,2.431227
3495.078000,2.432964
3498.076000,2.428405
3501.076000,2.435068
3504.076000,2.443213
3507.076000,2.444080
3510.076000,2.455730
3513.075000,2.446779
3516.075000,2.461220
3519.075000,2.453075
3522.075000,2.458589
3525.075000,2.462481
3528.073000,2.462923
3531.073000,2.460081
3534.074000,2.462961
3537.074000,2.471167
3540.074000,2.464674
3543.074000,2.472625
3546.072000,2.480828
3549.072000,2.466965
3552.072000,2.489164
3555.072000,2.477908
3558.073000,2.489412
3561.071000,2.483538
3564.071000,2.501059
3567.071000,2.489160
3570.071000,2.499967
3573.071000,2.490996
3576.069000,2.500345
3579.070000,2.496000
3582.070000,2.502350
3585.070000,2.502000
3588.070000,2.510580
3591.068000,2.503472
3594.068000,2.516220
3597.068000,2.511070
3600.069000,2.516387
3603.069000,2.518005
3606.069000,2.514820
3609.067000,2.512596
3612.067000,2.515122
3615.067000,2.521292
3618.066000,2.512178
3621.066000,2.533799
3624.067000,2.517230
3627.067000,2.529413
3630.067000,2.524324
3633.065000,2.516727
3636.065000,2.529386
3639.065000,2.517383
3642.065000,2.525562
3645.066000,2.525062
3648.064000,2.530607
3651.064000,2.518365
3654.064000,2.533680
3657.064000,2.517923
3660.064000,2.530318
3663.062000,2.534468
3666.063000,2.518926
3669.063000,2.524637
3672.063000,2.531837
3675.063000,2.533112
3678.063000,2.514775
3681.061000,2.512409
3684.061000,2.515795
3687.061000,2.527666
3690.062000,2.510553
3693.062000,2.520350
3696.060000,2.530770
3699.060000,2.533676
3702.060000,2.510298
3705.060000,2.526993
3708.060000,2.507953
3711.059000,2.508446
3714.059000,2.506572
3717.059000,2.525776
3720.059000,2.507885
3723.059000,2.507521
3726.059000,2.502044
3729.057000,2.502347
3732.058000,2.501480
3735.058000,2.500001
3738.058000,2.503809
3741.058000,2.496041
3744.056000,2.493073
3747.056000,2.508085
3750.056000,2.497401
3753.057000,2.484816
3756.057000,2.491384
3759.055000,2.488124
3762.055000,2.501120
3765.055000,2.482569
3768.055000,2.485445
3771.055000,2.476395
3774.054000,2.472058
3777.055000,2.472105
3780.055000,2.473489
3783.053000,2.472588
3786.053000,2.468961
3789.053000,2.466003
3792.053000,2.463556
3795.053000,2.462379
3798.054000,2.474349
3801.052000,2.461203
3804.053000,2.459133
3807.051000,2.456621
3810.051000,2.457382
3813.051000,2.458412
3816.051000,2.450808
3819.051000,2.452759
3822.050000,2.461203
3825.050000,2.450352
3828.050000,2.456604
3831.050000,2.443978
3834.050000,2.432369
3837.050000,2.431264
3840.048000,2.431285
3843.049000,2.429898
3846.049000,2.438505
3849.048000,2.442547
3852.048000,2.421786
3855.048000,2.420450
3858.048000,2.422959
3861.048000,2.420151
3864.047000,2.410442
3867.047000,2.409596
3870.047000,2.411466
3873.047000,2.407121
3876.047000,2.403650
3879.045000,2.411697
3882.045000,2.412149
3885.045000,2.400468
3888.046000,2.411201
3891.046000,2.414984
3894.046000,2.390369
3897.044000,2.390644
3900.044000,2.399897
3903.044000,2.391242
3906.044000,2.384906
3909.045000,2.396630
3912.043000,2.398959
3915.043000,2.382186
3918.043000,2.378868
3921.043000,2.381860
3924.043000,2.377369
3927.041000,2.378780
3930.042000,2.370023
3933.042000,2.369880
3936.042000,2.381697
3939.042000,2.386667
3942.040000,2.364033
3945.040000,2.376727
3948.040000,2.361256
3951.040000,2.364434
3954.041000,2.359665
3957.041000,2.366246
3960.039000,2.357438
3963.039000,2.361293
3966.039000,2.352390
3969.039000,2.349558
3972.039000,2.367415
3975.038000,2.356027
3978.038000,2.343130
3981.039000,2.348977
3984.037000,2.341192
3987.037000,2.360402
3990.037000,2.341780
3993.036000,2.340125
3996.037000,2.359668
3999.037000,2.366906
4002.037000,2.346437
4005.037000,2.338823
4008.035000,2.338785
4011.035000,2.334614
4014.035000,2.335134
4017.035000,2.328261
4020.036000,2.328590
4023.034000,2.350204
4026.034000,2.327798
4029.034000,2.329930
4032.034000,2.336253
4035.033000,2.328427
4038.033000,2.341525
4041.034000,2.332075
4044.034000,2.322175
4047.032000,2.331089
4050.032000,2.337670
4053.032000,2.332476
4056.032000,2.318256
4059.032000,2.323695
4062.031000,2.340499
4065.031000,2.326585
4068.031000,2.315703
4071.031000,2.325680
4074.031000,2.331806
4077.029000,2.316311
4080.029000,2.332343
4083.029000,2.338435
4086.030000,2.338683
4089.030000,2.327230
4092.030000,2.322539
4095.028000,2.316410
4098.028000,2.315251
4101.028000,2.317756
4104.028000,2.318361
4107.029000,2.319799
4110.027000,2.331221
4113.027000,2.319908
4116.027000,2.318161
4119.027000,2.334176
4122.027000,2.330317
4125.027000,2.318453
4128.026000,2.336667
4131.026000,2.327128
4134.026000,2.321608
4137.026000,2.336253
4140.026000,2.319164
4143.024000,2.338017
4146.024000,2.332840
4149.024000,2.332360
4152.025000,2.338228
4155.025000,2.331249
4158.023000,2.350061
4161.023000,2.336630
4164.023000,2.341423
4167.023000,2.344775
4170.023000,2.344258
4173.022000,2.361602
4176.022000,2.345921
4179.022000,2.350527
4182.022000,2.366603
4185.022000,2.345965
4188.022000,2.365253
4191.020000,2.349259
4194.021000,2.367161
4197.021000,2.357238
4200.021000,2.367263
4203.021000,2.373307
4206.019000,2.371808
4209.019000,2.376523
4212.019000,2.366453
4215.020000,2.386752
4218.020000,2.388839
4221.018000,2.371485
4224.018000,2.380888
4227.018000,2.383039
4230.018000,2.383631
4233.018000,2.394812
4236.018000,2.395835
4239.017000,2.393999
4242.017000,2.389706
4245.016000,2.407495
4248.016000,2.391688
4251.016000,2.411629
4254.016000,2.403215
4257.016000,2.406550
4260.015000,2.411238
4263.015000,2.410643
4266.015000,2.423612
4269.015000,2.412856
4272.015000,2.419777
4275.015000,2.420389
4278.013000,2.427855
4281.014000,2.411432
4284.014000,2.429544
4287.014000,2.422728
4290.014000,2.429204
4293.012000,2.422446
4296.012000,2.440354
4299.012000,2.426284
4302.012000,2.436849
4305.013000,2.428201
4308.013000,2.439307
4311.011000,2.424571
4314.011000,2.447935
4317.011000,2.440154
4320.011000,2.445345
4323.011000,2.430883
4326.010000,2.441833
4329.010000,2.457787
4332.010000,2.432974
4335.010000,2.449054
4338.010000,2.431543
4341.008000,2.446929
4344.008000,2.443645
4347.009000,2.458456
4350.009000,2.453935
4353.009000,2.456509
4356.009000,2.432675
4359.007000,2.434993
4362.007000,2.452473
4365.007000,2.432967
4368.007000,2.454873
4371.008000,2.455013
4374.006000,2.450628
4377.006000,2.450750
4380.006000,2.442292
4383.006000,2.434317
4386.006000,2.448890
4389.004000,2.457719
4392.005000,2.436632
4395.006000,2.451049
4398.004000,2.443468
4401.004000,2.453840
4404.004000,2.439977
4407.004000,2.439555
4410.003000,2.454935
4413.004000,2.439889
4416.004000,2.440528
4419.004000,2.434225
4422.002000,2.452419
4425.002000,2.442822
4428.002000,2.438937
4431.002000,2.435908
4434.002000,2.451195
4437.001000,2.442445
4440.001000,2.444369
4443.001000,2.438219
4446.001000,2.454680
4449.001000,2.437183
4451.999000,2.446297
4454.999000,2.444804
4458.000000,2.437822
4461.000000,2.432746
4464.000000,2.441000
4466.998000,2.439984
4469.998000,2.441592
4472.998000,2.440793
4475.998000,2.440623
4478.999000,2.441510
4481.999000,2.433756
4484.997000,2.446235
4487.997000,2.454727
4490.997000,2.431427
4493.997000,2.430792
4496.997000,2.432451
4499.995000,2.433617
4502.996000,2.438393
4505.996000,2.440762
4508.996000,2.440905
4511.996000,2.440307
4514.994000,2.436673
4517.994000,2.440827
4520.994000,2.445008
4523.995000,2.437121
4526.995000,2.442136
4529.995000,2.456597
4532.993000,2.461173
4535.993000,2.458032
4538.993000,2.450073
4541.993000,2.442047
4544.994000,2.430788
4547.992000,2.430618
4550.992000,2.436887
4553.992000,2.446310
4556.992000,2.446895
4559.992000,2.454098
4562.992000,2.447143
4565.990000,2.434562
4568.991000,2.450835
4571.991000,2.436156
4574.991000,2.445668
4577.991000,2.444271
4580.989000,2.442088
4583.989000,2.436911
4586.989000,2.438192
4589.990000,2.439236
4592.990000,2.430724
4595.988000,2.432889
4598.988000,2.445746
4601.988000,2.428507
4604.988000,2.427742
4607.988000,2.431975
4610.987000,2.438522
4613.987000,2.435527
4616.987000,2.429235
4619.987000,2.421249
4622.987000,2.421596
4625.987000,2.432277
4628.985000,2.445416
4631.985000,2.437754
4634.986000,2.425036
4637.986000,2.440484
4640.986000,2.421841
4643.984000,2.420631
4646.984000,2.420872
4649.984000,2.429041
4652.984000,2.442112
4655.985000,2.424639
4658.983000,2.430255
4661.983000,2.443849
4664.983000,2.442435
4667.983000,2.429034
4670.983000,2.424618
4673.983000,2.437359
4676.982000,2.430679
4679.982000,2.435520
4682.982000,2.437291
4685.982000,2.427535
4688.982000,2.434613
4691.980000,2.426746
4694.980000,2.423966
4697.980000,2.437376
4700.981000,2.439012
4703.981000,2.422915
4706.979000,2.430805
4709.979000,2.427307
4712.979000,2.429031
4715.979000,2.449801
4718.979000,2.433474
4721.980000,2.430802
4724.978000,2.448860
4727.978000,2.430139
4730.977000,2.441225
4733.977000,2.435242
4736.977000,2.437281
4739.977000,2.426617
4742.978000,2.434854
4745.978000,2.453099
4748.976000,2.431213
4751.976000,2.449829
4754.976000,2.433776
4757.976000,2.450264
4760.976000,2.436302
4763.974000,2.445253
4766.975000,2.434810
4769.975000,2.437744
4772.975000,2.443009
4775.975000,2.443693
4778.973000,2.461200
4781.973000,2.447293
4784.973000,2.435945
4787.974000,2.455074
4790.974000,2.439501
4793.974000,2.448941
4796.972000,2.447361
4799.972000,2.440181
4802.972000,2.449706
4805.972000,2.461169
4808.973000,2.452246
4811.971000,2.458742
4814.971000,2.461207
4817.971000,2.456036
4820.971000,2.448816
4823.971000,2.452497
4826.969000,2.450740
4829.969000,2.459809
4832.970000,2.444165
4835.970000,2.460707
4838.970000,2.461302
4841.970000,2.461506
4844.968000,2.461190
4847.968000,2.460034
4850.968000,2.457831
4853.969000,2.459242
4856.969000,2.461203
4859.967000,2.461853
4862.967000,2.448935
4865.967000,2.452283
4868.967000,2.458633
4871.967000,2.445294
4874.966000,2.448346
4877.966000,2.449536
4880.966000,2.451076
4883.966000,2.450831
4886.966000,2.442911
4889.964000,2.444325
4892.964000,2.445722
4895.964000,2.441038
4898.965000,2.444498
4901.965000,2.460551
4904.965000,2.461849
4907.963000,2.461149
4910.963000,2.453626
4913.963000,2.446439
4916.963000,2.461203
4919.964000,2.452072
4922.962000,2.441687
4925.962000,2.450729
4928.962000,2.460622
4931.962000,2.443937
4934.962000,2.447833
4937.962000,2.446307
4940.961000,2.439022
4943.961000,2.431342
4946.961000,2.433501
4949.961000,2.430934
4952.961000,2.431438
4955.959000,2.441279
4958.959000,2.441157
4961.959000,2.440755
4964.960000,2.432338
4967.960000,2.428409
4970.958000,2.428140
4973.958000,2.430700
4976.958000,2.426943
4979.958000,2.437890
4982.958000,2.444750
4985.957000,2.422337
4988.957000,2.427117
4991.957000,2.422711
4994.957000,2.425594
4997.957000,2.439946
5000.957000,2.425536
5003.955000,2.420240
5006.956000,2.428225
5009.956000,2.420913
5012.956000,2.415773
5015.956000,2.411666
5018.954000,2.427222
5021.954000,2.427797
5024.954000,2.408892
5027.954000,2.407913
5030.955000,2.419550
5033.953000,2.430142
5036.953000,2.418717
5039.953000,2.413407
5042.952000,2.405319
5045.952000,2.404466
5048.952000,2.426525
5051.953000,2.406268
5054.953000,2.405697
5057.951000,2.415647
5060.951000,2.402515
5063.951000,2.420658
5066.951000,2.401617
5069.951000,2.397691
5072.952000,2.419937
5075.950000,2.392847
5078.950000,2.390382
5081.950000,2.389971
5084.950000,2.389842
5087.950000,2.389815
5090.948000,2.389801
5093.948000,2.391130
5096.949000,2.407067
5099.949000,2.391185
5102.949000,2.397834
5105.947000,2.402352
5108.947000,2.389713
5111.947000,2.390188
5114.947000,2.387493
5117.948000,2.393870
5120.948000,2.397089
5123.946000,2.394917
5126.946000,2.403773
5129.946000,2.389311
5132.946000,2.386799
5135.946000,2.400519
5138.945000,2.397344
5141.945000,2.401284
5144.945000,2.409467
5147.945000,2.408025
5150.945000,2.409739
5153.943000,2.415372
5156.943000,2.389927
5159.943000,2.389859
5162.944000,2.402855
5165.944000,2.407954
5168.944000,2.392480
5171.942000,2.408117
5174.942000,2.414627
5177.942000,2.417918
5180.942000,2.391953
5183.943000,2.405136
5186.941000,2.421888
5189.941000,2.403960
5192.941000,2.410912
5195.941000,2.424826
5198.941000,2.416497
5201.939000,2.406829
5204.940000,2.411578
5207.940000,2.400322
5210.940000,2.408984
5213.940000,2.425706
5216.938000,2.412373
5219.938000,2.424438
5222.938000,2.406329
5225.937000,2.425482
5228.938000,2.406781
5231.938000,2.410167
5234.938000,2.426090
5237.938000,2.411840
5240.936000,2.412635
5243.936000,2.425628
5246.936000,2.425070
5249.937000,2.418251
5252.937000,2.434585
5255.937000,2.415188
5258.935000,2.435276
5261.935000,2.418768
5264.935000,2.430445
5267.935000,2.427049
5270.936000,2.414835
5273.934000,2.420529
5276.934000,2.426716
5279.934000,2.428283
5282.934000,2.421759
5285.934000,2.420702
5288.934000,2.420403
5291.932000,2.420559
5294.933000,2.436656
5297.933000,2.417768
5300.933000,2.433202
5303.933000,2.421596
5306.931000,2.424683
5309.931000,2.435245
5312.931000,2.421936
5315.932000,2.420835
5318.932000,2.431587
5321.930000,2.415073
5324.930000,2.420984
5327.930000,2.438036
5330.930000,2.440171
5333.930000,2.435564
5336.929000,2.437074
5339.929000,2.416500
5342.929000,2.428572
5345.929000,2.432168
5348.929000,2.431138
5351.929000,2.430656
5354.927000,2.417687
5357.927000,2.418815
5360.928000,2.428511
5363.928000,2.435078
5366.928000,2.420250
5369.926000,2.428500
5372.926000,2.425818
5375.926000,2.417602
5378.926000,2.434368
5381.927000,2.422558
5384.925000,2.416262
5387.925000,2.419743
5390.925000,2.420702
5393.925000,2.411955
5396.925000,2.418346
5399.925000,2.443373
5402.924000,2.441636
5405.924000,2.431849
5408.924000,2.430744
5411.924000,2.434966
5414.924000,2.442353
5417.922000,2.417847
5420.922000,2.420315
5423.922000,2.420325
5426.923000,2.420658
5429.923000,2.423190
5432.921000,2.430272
5435.921000,2.436727
5438.922000,2.425546
5441.920000,2.421644
5444.920000,2.434276
5447.921000,2.419873
5450.921000,2.433926
5453.921000,2.420430
5456.919000,2.421746
5459.919000,2.429537
5462.919000,2.435017
5465.919000,2.423932
5468.920000,2.438818
5471.918000,2.444474
5474.918000,2.440806
5477.918000,2.444206
5480.918000,2.445243
5483.918000,2.441072
5486.918000,2.440817
5489.916000,2.440806
5492.917000,2.447901
5495.918000,2.442442
5498.916000,2.420335
5501.916000,2.430071
5504.916000,2.434691
5507.916000,2.420294
5510.916000,2.434633
5513.915000,2.442812
5516.915000,2.425577
5519.915000,2.436282
5522.915000,2.446416
5525.915000,2.439008
5528.913000,2.421300
5531.913000,2.438430
5534.914000,2.438328
5537.914000,2.420478
5540.914000,2.420896
5543.912000,2.422551
5546.912000,2.429255
5549.912000,2.425638
5552.912000,2.420665
5555.912000,2.422732
5558.913000,2.439317
5561.911000,2.440749
5564.911000,2.429942
5567.911000,2.420760
5570.911000,2.429140
5573.911000,2.430608
5576.909000,2.430010
5579.910000,2.421178
5582.910000,2.423323
5585.910000,2.420066
5588.910000,2.417058
5591.908000,2.431859
5594.908000,2.441480
5597.908000,2.441221
5600.909000,2.440147
5603.909000,2.432315
5606.909000,2.421239
5609.907000,2.415630
5612.907000,2.412649
5615.907000,2.420716
5618.907000,2.432148
5621.907000,2.432151
5624.906000,2.423340
5627.906000,2.415919
5630.906000,2.434813
5633.906000,2.410239
5636.906000,2.419781
5639.904000,2.420420
5642.904000,2.418645
5645.905000,2.408845
5648.905000,2.418642
5651.905000,2.409916
5654.905000,2.408369
5657.903000,2.411585
5660.903000,2.409426
5663.903000,2.403018
5666.904000,2.417796
5669.904000,2.426784
5672.902000,2.400900
5675.902000,2.409382
5678.902000,2.403562
5681.902000,2.408923
5684.902000,2.414675
5687.900000,2.400037
5690.901000,2.401393
5693.901000,2.414263
5696.901000,2.414838
5699.901000,2.415185
5702.899000,2.430353
5705.899000,2.416218
5708.899000,2.400292
5711.900000,2.407247
5714.900000,2.413400
5717.900000,2.417143
5720.898000,2.409491
5723.898000,2.413781
5726.898000,2.399942
5729.898000,2.400091
5732.899000,2.399969
5735.897000,2.399064
5738.897000,2.403256
5741.897000,2.416908
5744.897000,2.411418
5747.897000,2.405693
5750.897000,2.420882
5753.895000,2.416755
5756.896000,2.419533
5759.896000,2.420342
5762.896000,2.420505
5765.896000,2.418173
5768.894000,2.420750
5771.894000,2.426573
5774.894000,2.408229
5777.895000,2.417510
5780.895000,2.415270
5783.893000,2.399751
5786.893000,2.418108
5789.893000,2.411034
5792.893000,2.408097
5795.893000,2.415582
5798.892000,2.400509
5801.892000,2.414226
5804.892000,2.421433
5807.892000,2.420413
5810.892000,2.416099
5813.892000,2.407862
5816.890000,2.398742
5819.891000,2.408015
5822.891000,2.426712
5825.891000,2.415960
5828.891000,2.396532
5831.889000,2.400006
5834.889000,2.400023
5837.889000,2.400033
5840.889000,2.399673
5843.890000,2.396797
5846.890000,2.395308
5849.888000,2.403382
5852.888000,2.417656
5855.888000,2.402192
5858.888000,2.394870
5861.888000,2.395294
5864.887000,2.425947
5867.887000,2.396464
5870.887000,2.414814
5873.887000,2.420542
5876.887000,2.420403
5879.885000,2.417367
5882.886000,2.403273
5885.887000,2.397569
5888.885000,2.410432
5891.885000,2.420508
5894.885000,2.416633
5897.885000,2.412924
5900.885000,2.406581
5903.883000,2.397100
5906.883000,2.418530
5909.884000,2.412934
5912.884000,2.397902
5915.884000,2.406486
5918.882000,2.401522
5921.883000,2.407356
5924.883000,2.393809
5927.881000,2.414134
5930.882000,2.399462
5933.882000,2.389900
5936.882000,2.396267
5939.882000,2.406873
5942.880000,2.419740
5945.880000,2.394227
5948.880000,2.402420
5951.881000,2.417656
5954.881000,2.405850
5957.881000,2.399663
5960.879000,2.414206
5963.879000,2.399806
5966.879000,2.420264
5969.879000,2.419461
5972.879000,2.421311
5975.878000,2.410279
5978.878000,2.418295
5981.878000,2.411755
5984.878000,2.402746
5987.878000,2.420226
5990.876000,2.422823
5993.876000,2.416473
5996.877000,2.400166
5999.877000,2.408960
6002.877000,2.424894
6005.875000,2.425400
6008.875000,2.404640
6011.875000,2.410759
6014.875000,2.430282
6017.876000,2.413798
6020.876000,2.426437
6023.874000,2.414063
6026.874000,2.422245
6029.874000,2.438175
6032.874000,2.424496
6035.874000,2.429629
6038.872000,2.440569
6041.873000,2.427940
6044.873000,2.440229
6047.873000,2.450413
6050.873000,2.425183
6053.871000,2.438406
6056.872000,2.431064
6059.872000,2.436598
6062.871000,2.443179
6065.871000,2.452327
6068.871000,2.434504
6071.871000,2.449591
6074.871000,2.435874
6077.869000,2.457919
6080.869000,2.434762
6083.870000,2.453983
6086.870000,2.440980
6089.870000,2.447371
6092.870000,2.461091
6095.868000,2.462141
6098.868000,2.445246
6101.868000,2.460625
6104.868000,2.463909
6107.869000,2.460591
6110.867000,2.452722
6113.867000,2.457209
6116.867000,2.463953
6119.867000,2.461417
6122.867000,2.465759
6125.867000,2.459198
6128.866000,2.457100
6131.866000,2.458895
6134.866000,2.465357
6137.866000,2.457124
6140.866000,2.473866
6143.864000,2.462529
6146.864000,2.463420
6149.865000,2.468590
6152.865000,2.460693
6155.865000,2.462549
6158.863000,2.480084
6161.863000,2.461723
6164.863000,2.462560
6167.863000,2.472112
6170.863000,2.462964
6173.862000,2.478605
6176.862000,2.476083
6179.862000,2.467506
6182.862000,2.463341
6185.862000,2.467074
6188.862000,2.461853
6191.860000,2.471565
6194.861000,2.462430
6197.861000,2.472442
6200.861000,2.461108
6203.861000,2.461234
6206.859000,2.461200
6209.859000,2.459279
6212.859000,2.466928
6215.860000,2.463545
6218.860000,2.459551
6221.858000,2.463155
6224.858000,2.460979
6227.858000,2.471269
6230.858000,2.454183
6233.858000,2.451222
6236.858000,2.453707
6239.857000,2.467645
6242.857000,2.453435
6245.857000,2.461169
6248.857000,2.455292
6251.857000,2.453221
6254.855000,2.463399
6257.855000,2.449543
6260.855000,2.450988
6263.855000,2.451372
6266.855000,2.449278
6269.855000,2.460126
6272.855000,2.462073
6275.855000,2.450342
6278.853000,2.453109
6281.854000,2.443186
6284.854000,2.437890
6287.854000,2.435398
6290.854000,2.440868
6293.852000,2.434925
6296.852000,2.441425
6299.852000,2.455659
6302.852000,2.431009
6305.853000,2.430618
6308.853000,2.430336
6311.851000,2.437094
6314.852000,2.439708
6317.850000,2.432913
6320.850000,2.430547
6323.850000,2.449196
6326.851000,2.436006
6329.851000,2.435269
6332.851000,2.428980
6335.849000,2.430115
6338.849000,2.425210
6341.849000,2.438559
6344.849000,2.421654
6347.850000,2.430469
6350.848000,2.427756
6353.848000,2.416398
6356.848000,2.418673
6359.848000,2.418860
6362.848000,2.422725
6365.846000,2.440633
6368.846000,2.438468
6371.847000,2.425720
6374.847000,2.407383
6377.847000,2.418792
6380.845000,2.431237
6383.845000,2.425349
6386.845000,2.408284
6389.845000,2.420379
6392.846000,2.416793
6395.846000,2.415922
6398.844000,2.405296
6401.844000,2.410776
6404.844000,2.403392
6407.843000,2.395896
6410.843000,2.396794
6413.844000,2.390545
6416.844000,2.408260
6419.844000,2.400322
6422.842000,2.390188
6425.842000,2.389679
6428.842000,2.392718
6431.842000,2.400037
6434.842000,2.396253
6437.841000,2.389073
6440.841000,2.400975
6443.841000,2.403630
6446.841000,2.387928
6449.841000,2.382319
6452.841000,2.388356
6455.839000,2.386772
6458.840000,2.379630
6461.840000,2.393248
6464.840000,2.383543
6467.840000,2.379467
6470.838000,2.379249
6473.838000,2.386354
6476.838000,2.395434
6479.839000,2.379514
6482.839000,2.379582
6485.837000,2.379575
6488.837000,2.380313
6491.837000,2.390515
6494.837000,2.385215
6497.837000,2.389777
6500.835000,2.380293
6503.836000,2.397960
6506.836000,2.393761
6509.836000,2.390430
6512.836000,2.380701
6515.836000,2.374585
6518.834000,2.384664
6521.834000,2.384661
6524.835000,2.380983
6527.835000,2.379735
6530.835000,2.386949
6533.833000,2.392429
6536.833000,2.373123
6539.833000,2.373891
6542.833000,2.393469
6545.834000,2.381115
6548.832000,2.382550
6551.832000,2.393241
6554.832000,2.381629
6557.831000,2.392058
6560.831000,2.381445
6563.831000,2.393863
6566.831000,2.382050
6569.832000,2.384919
6572.830000,2.400186
6575.830000,2.377920
6578.830000,2.393547
6581.830000,2.382067
6584.830000,2.400540
6587.828000,2.399534
6590.829000,2.403089
6593.829000,2.386106
6596.829000,2.394448
6599.829000,2.401400
6602.829000,2.409827
6605.827000,2.389247
6608.827000,2.405387
6611.828000,2.398874
6614.828000,2.408331
6617.828000,2.391341
6620.826000,2.412261
6623.826000,2.412248
6626.826000,2.419607
6629.826000,2.405323
6632.826000,2.395301
6635.825000,2.411524
6638.825000,2.403440
6641.825000,2.412081
6644.825000,2.413689
6647.825000,2.422473
6650.825000,2.410524
6653.823000,2.422732
6656.824000,2.419740
6659.824000,2.420148
6662.824000,2.428069
6665.824000,2.413601
6668.822000,2.429639
6671.822000,2.420141
6674.822000,2.441473
6677.823000,2.420767
6680.823000,2.439416
6683.823000,2.422551
6686.821000,2.426046
6689.821000,2.438481
6692.821000,2.424068
6695.821000,2.446898
6698.821000,2.442965
6701.820000,2.446001
6704.820000,2.430064
6707.820000,2.447932
6710.820000,2.448649
6713.820000,2.431101
6716.818000,2.436693
6719.818000,2.445766
6722.819000,2.439722
6725.819000,2.453415
6728.819000,2.439552
6731.817000,2.442816
6734.817000,2.456638
6737.817000,2.455676
6740.817000,2.457097
6743.818000,2.455040
6746.818000,2.442091
6749.816000,2.449159
6752.816000,2.439015
6755.816000,2.443706
6758.816000,2.456308
6761.816000,2.445712
6764.814000,2.440140
6767.815000,2.445651
6770.815000,2.452949
6773.815000,2.450719
6776.815000,2.450682
6779.813000,2.459599
6782.813000,2.438937
6785.813000,2.448000
6788.814000,2.461880
6791.814000,2.446249
6794.814000,2.455822
6797.812000,2.460068
6800.812000,2.440728
6803.812000,2.454003
6806.812000,2.433005
6809.813000,2.443533
6812.811000,2.443145
6815.811000,2.431992
6818.810000,2.439668
6821.810000,2.439566
6824.810000,2.436391
6827.810000,2.451355
6830.809000,2.437359
6833.811000,2.442659
6836.809000,2.434412
6839.809000,2.432294
6842.809000,2.447187
6845.809000,2.428636
6848.809000,2.429027
6851.807000,2.431356
6854.808000,2.442261
6857.808000,2.426039
6860.808000,2.427205
6863.808000,2.419199
6866.808000,2.420603
6869.806000,2.412924
6872.806000,2.411863
6875.807000,2.408331
6878.807000,2.408668
6881.807000,2.402913
6884.805000,2.406805
6887.805000,2.402294
6890.805000,2.413383
6893.805000,2.405918
6896.805000,2.415096
6899.804000,2.402325
6902.804000,2.402464
6905.804000,2.422313
6908.804000,2.404983
6911.804000,2.403671
6914.804000,2.397596
6917.802000,2.396195
6920.803000,2.393680
6923.803000,2.387207
6926.803000,2.409287
6929.803000,2.386126
6932.801000,2.387751
6935.801000,2.397929
6938.800000,2.380969
6941.801000,2.376016
6944.801000,2.374408
6947.801000,2.389335
6950.801000,2.399877
6953.801000,2.379069
6956.799000,2.369401
6959.799000,2.372464
6962.799000,2.368639
6965.800000,2.379864
6968.800000,2.380527
6971.798000,2.367823
6974.798000,2.370903
6977.798000,2.379354
6980.798000,2.367983
6983.798000,2.369244
6986.797000,2.364200
6989.797000,2.365039
6992.797000,2.365009
6995.797000,2.362021
6998.797000,2.371067
7001.797000,2.370655
7004.795000,2.361922
7007.796000,2.356867
7010.796000,2.357122
7013.796000,2.375669
7016.796000,2.355881
7019.794000,2.364679
7022.794000,2.376461
7025.794000,2.369584
7028.794000,2.357778
7031.795000,2.369309
7034.795000,2.369061
7037.793000,2.358247
7040.793000,2.353389
7043.793000,2.373358
7046.793000,2.379939
7049.793000,2.370213
7052.792000,2.351805
7055.793000,2.354059
7058.791000,2.353692
7061.791000,2.360865
7064.791000,2.371746
7067.791000,2.354158
7070.791000,2.372059
7073.792000,2.348987
7076.790000,2.359447
7079.790000,2.372800
7082.790000,2.355711
7085.790000,2.350677
7088.790000,2.358172
7091.788000,2.371590
7094.788000,2.359838
7097.789000,2.351584
7100.789000,2.357737
7103.789000,2.358023
7106.787000,2.356381
7109.787000,2.351343
7112.787000,2.349079
7115.787000,2.349242
7118.788000,2.356347
7121.788000,2.364710
7124.786000,2.379232
7127.786000,2.360508
7130.786000,2.359315
7133.786000,2.379640
7136.786000,2.356816
7139.785000,2.349925
7142.785000,2.363333
7145.785000,2.370475
7148.785000,2.351078
7151.785000,2.375935
7154.783000,2.379722
7157.783000,2.356126
7160.783000,2.366358
7163.784000,2.376302
7166.784000,2.360484
7169.782000,2.349116
7172.783000,2.355847
7175.783000,2.367759
7178.781000,2.366447
7181.781000,2.368038
7184.782000,2.355789
7187.782000,2.354348
7190.782000,2.360926
7193.781000,2.375656
7196.780000,2.367021
7199.780000,2.360912
7202.779000,2.371372
7205.780000,2.361514
