Time(s),Position(V)
0.355000,-1.002348
3.372000,-0.992309
6.372000,-0.975982
9.372000,-0.962860
12.370000,-0.944394
15.370000,-0.921859
18.370000,-0.895911
21.370000,-0.873379
24.371000,-0.837841
27.369000,-0.808902
30.369000,-0.775305
33.369000,-0.739543
36.369000,-0.696818
39.369000,-0.657904
42.369000,-0.609860
45.368000,-0.560099
48.368000,-0.510398
51.368000,-0.457448
54.368000,-0.406637
57.368000,-0.352300
60.366000,-0.297548
63.366000,-0.240689
66.367000,-0.181925
69.367000,-0.124073
72.367000,-0.063529
75.365000,0.001659
78.365000,0.070236
81.365000,0.129135
84.365000,0.200324
87.365000,0.269394
90.364000,0.343247
93.364000,0.414867
96.364000,0.490070
99.364000,0.563726
102.364000,0.595912
105.364000,0.654427
108.362000,0.759712
111.363000,0.876670
114.363000,0.956354
117.363000,1.029969
120.363000,1.115265
123.361000,1.198796
126.361000,1.280499
129.361000,1.362531
132.362000,1.443670
135.362000,1.528938
138.360000,1.618769
141.360000,1.704762
144.360000,1.791084
147.360000,1.878168
150.360000,1.965191
153.358000,2.054352
156.359000,2.123875
159.359000,2.212465
162.359000,2.295809
165.359000,2.372154
168.359000,2.447942
171.357000,2.522744
174.357000,2.599881
177.358000,2.674876
180.358000,2.751269
183.358000,2.831602
186.356000,2.916898
189.356000,3.005811
192.356000,3.093037
195.356000,3.174842
198.357000,3.249773
201.357000,3.319448
204.355000,3.383049
207.355000,3.428265
210.355000,3.492518
213.355000,3.555201
216.355000,3.623853
219.353000,3.697054
222.354000,3.776424
225.354000,3.848568
228.354000,3.912321
231.354000,3.967059
234.352000,4.020458
237.352000,4.068445
240.352000,4.114246
243.353000,4.159387
246.353000,4.207510
249.353000,4.259491
252.351000,4.314093
255.351000,4.363358
258.351000,4.409390
261.351000,4.449518
264.352000,4.490410
267.350000,4.522127
270.350000,4.546525
273.350000,4.571905
276.350000,4.596820
279.350000,4.625089
282.348000,4.650470
285.348000,4.669928
288.349000,4.693228
291.349000,4.711596
294.349000,4.729548
297.347000,4.750091
300.347000,4.765800
303.347000,4.780669
306.347000,4.790171
309.348000,4.805890
312.348000,4.811285
315.347000,4.817570
318.347000,4.823985
321.345000,4.806196
324.345000,4.817166
327.345000,4.811914
330.346000,4.788437
333.346000,4.780452
336.346000,4.765627
339.344000,4.751709
342.344000,4.736299
345.344000,4.715624
348.344000,4.698555
351.344000,4.677244
354.343000,4.657582
357.343000,4.637861
360.343000,4.614017
363.343000,4.591153
366.343000,4.568261
369.343000,4.547065
372.341000,4.518632
375.342000,4.491535
378.342000,4.461113
381.342000,4.428767
384.342000,4.393726
387.340000,4.351093
390.340000,4.301532
393.340000,4.249809
396.341000,4.196264
399.341000,4.149518
402.339000,4.104799
405.339000,4.065953
408.339000,4.023871
411.339000,3.981283
414.339000,3.940084
417.337000,3.891958
420.338000,3.840174
423.338000,3.785045
426.338000,3.724331
429.338000,3.658351
432.338000,3.591918
435.336000,3.530259
438.336000,3.475548
441.337000,3.424475
444.337000,3.373211
447.337000,3.318639
450.335000,3.265196
453.335000,3.211053
456.335000,3.153286
459.335000,3.092555
462.336000,3.026748
465.334000,2.956257
468.334000,2.885024
471.334000,2.815067
474.334000,2.750174
477.334000,2.688743
480.334000,2.627889
483.332000,2.569799
486.333000,2.512117
489.333000,2.457042
492.333000,2.401485
495.333000,2.343966
498.331000,2.287746
501.331000,2.230302
504.331000,2.170002
507.332000,2.112653
510.332000,2.052452
513.330000,1.991948
516.330000,1.932097
519.330000,1.871764
522.330000,1.811444
525.330000,1.753347
528.329000,1.695155
531.329000,1.636936
534.329000,1.580692
537.329000,1.524896
540.329000,1.471657
543.329000,1.420611
546.327000,1.368310
549.327000,1.316295
552.328000,1.268047
555.328000,1.218207
558.328000,1.172794
561.326000,1.132500
564.326000,1.086546
567.326000,1.043132
570.326000,1.002185
573.327000,0.962116
576.327000,0.922311
579.325000,0.887263
582.326000,0.848380
585.324000,0.815527
588.324000,0.780346
591.324000,0.747848
594.325000,0.717439
597.325000,0.686834
600.325000,0.658333
603.323000,0.631008
606.323000,0.604485
609.322000,0.582685
612.322000,0.559211
615.322000,0.536000
618.323000,0.516637
621.323000,0.500683
624.321000,0.483125
627.321000,0.468793
630.321000,0.453998
633.321000,0.441424
636.321000,0.430678
639.322000,0.426109
642.321000,0.414330
645.321000,0.417066
648.319000,0.407130
651.319000,0.410869
654.319000,0.421958
657.319000,0.405277
660.320000,0.424610
663.320000,0.404611
666.318000,0.425541
669.318000,0.438537
672.318000,0.422563
675.318000,0.444633
678.318000,0.447135
681.316000,0.468650
684.317000,0.483526
687.317000,0.496692
690.317000,0.509474
693.317000,0.523391
696.315000,0.543914
699.315000,0.564627
702.315000,0.581451
705.316000,0.604132
708.316000,0.629271
711.316000,0.653669
714.314000,0.675337
717.315000,0.703828
720.313000,0.732778
723.313000,0.757675
726.314000,0.787183
729.314000,0.819046
732.314000,0.849325
735.314000,0.879461
738.312000,0.914921
741.312000,0.949517
744.312000,0.984912
747.312000,1.020185
750.313000,1.056294
753.311000,1.093342
756.311000,1.131388
759.311000,1.167623
762.311000,1.207125
765.311000,1.247725
768.309000,1.289348
771.310000,1.331212
774.310000,1.371129
777.310000,1.417164
780.310000,1.463210
783.310000,1.506247
786.308000,1.552106
789.308000,1.599253
792.309000,1.646097
795.309000,1.693207
798.309000,1.739151
801.307000,1.788321
804.307000,1.832221
807.307000,1.881649
810.307000,1.929718
813.307000,1.977888
816.306000,2.025416
819.306000,2.072067
822.306000,2.118517
825.306000,2.161194
828.306000,2.205720
831.306000,2.250532
834.304000,2.293780
837.305000,2.337221
840.305000,2.377886
843.305000,2.416028
846.305000,2.454381
849.303000,2.492135
852.303000,2.527666
855.303000,2.569636
858.304000,2.608883
861.304000,2.643387
864.302000,2.683599
867.302000,2.719749
870.302000,2.758863
873.302000,2.797250
876.302000,2.827788
879.300000,2.867690
882.301000,2.907580
885.301000,2.948944
888.301000,2.986410
891.301000,3.024338
894.301000,3.060365
897.300000,3.097086
900.300000,3.129632
903.301000,3.162060
906.299000,3.194678
909.299000,3.211475
912.299000,3.241771
915.298000,3.263751
918.298000,3.287327
921.298000,3.310535
924.299000,3.326349
927.299000,3.349309
930.297000,3.366310
933.297000,3.385459
936.297000,3.399845
939.297000,3.411536
942.297000,3.432501
945.295000,3.442648
948.296000,3.456565
951.296000,3.464177
954.296000,3.476170
957.296000,3.486518
960.294000,3.488826
963.294000,3.502489
966.294000,3.507911
969.295000,3.507347
972.295000,3.516746
975.293000,3.515223
978.293000,3.520819
981.293000,3.523154
984.293000,3.517205
987.293000,3.519676
990.294000,3.520084
993.292000,3.521567
996.292000,3.504814
999.292000,3.503379
1002.292000,3.498307
1005.292000,3.486416
1008.290000,3.481052
1011.290000,3.474562
1014.291000,3.462307
1017.291000,3.451055
1020.291000,3.438878
1023.291000,3.423360
1026.289000,3.411584
1029.289000,3.395416
1032.289000,3.378232
1035.290000,3.364175
1038.290000,3.348558
1041.288000,3.328154
1044.288000,3.311731
1047.288000,3.292518
1050.288000,3.273335
1053.288000,3.254134
1056.287000,3.235196
1059.287000,3.210043
1062.287000,3.191615
1065.287000,3.166564
1068.287000,3.142656
1071.287000,3.117823
1074.285000,3.091276
1077.285000,3.061684
1080.286000,3.032279
1083.286000,2.998141
1086.286000,2.962692
1089.284000,2.929455
1092.284000,2.894169
1095.284000,2.859695
1098.284000,2.824534
1101.285000,2.792596
1104.283000,2.760828
1107.283000,2.729203
1110.283000,2.697170
1113.283000,2.665011
1116.283000,2.635351
1119.281000,2.604151
1122.282000,2.573691
1125.282000,2.542556
1128.281000,2.512301
1131.281000,2.482263
1134.281000,2.456369
1137.281000,2.425556
1140.280000,2.392340
1143.280000,2.361619
1146.281000,2.331123
1149.281000,2.299902
1152.279000,2.268627
1155.279000,2.234082
1158.279000,2.203324
1161.279000,2.170974
1164.279000,2.139512
1167.278000,2.108533
1170.278000,2.075548
1173.278000,2.044487
1176.278000,2.010526
1179.278000,1.978500
1182.278000,1.947222
1185.276000,1.914050
1188.277000,1.883193
1191.277000,1.849375
1194.277000,1.819579
1197.277000,1.791152
1200.275000,1.759775
1203.275000,1.731414
1206.275000,1.702100
1209.275000,1.672933
1212.276000,1.645863
1215.274000,1.618671
1218.274000,1.592529
1221.274000,1.567478
1224.274000,1.541751
1227.274000,1.518233
1230.272000,1.492486
1233.273000,1.473837
1236.273000,1.450360
1239.273000,1.430850
1242.273000,1.408866
1245.273000,1.389142
1248.271000,1.369262
1251.271000,1.351905
1254.272000,1.332395
1257.272000,1.317920
1260.272000,1.301283
1263.270000,1.284487
1266.270000,1.271620
1269.270000,1.256376
1272.270000,1.243805
1275.270000,1.233382
1278.271000,1.221998
1281.269000,1.210127
1284.269000,1.201081
1287.269000,1.197722
1290.269000,1.189890
1293.269000,1.178461
1296.267000,1.176781
1299.268000,1.174657
1302.268000,1.166430
1305.268000,1.159604
1308.268000,1.156123
1311.267000,1.160076
1314.267000,1.182292
1317.267000,1.170367
1320.266000,1.157041
1323.266000,1.175425
1326.266000,1.179851
1329.266000,1.186463
1332.266000,1.169354
1335.264000,1.194054
1338.264000,1.181051
1341.264000,1.197069
1344.265000,1.199466
1347.265000,1.219115
1350.263000,1.228375
1353.263000,1.237101
1356.263000,1.239950
1359.263000,1.255877
1362.263000,1.262013
1365.264000,1.279489
1368.262000,1.285143
1371.262000,1.301786
1374.262000,1.315833
1377.262000,1.330253
1380.262000,1.339575
1383.260000,1.356236
1386.261000,1.371292
1389.261000,1.384733
1392.261000,1.407999
1395.261000,1.425449
1398.261000,1.447049
1401.259000,1.458971
1404.259000,1.480255
1407.259000,1.498714
1410.260000,1.519569
1413.260000,1.539422
1416.258000,1.562382
1419.258000,1.583513
1422.258000,1.606324
1425.258000,1.630412
1428.258000,1.652050
1431.257000,1.675149
1434.257000,1.696760
1437.257000,1.721803
1440.257000,1.745613
1443.257000,1.769260
1446.256000,1.795568
1449.256000,1.819072
1452.257000,1.844772
1455.255000,1.870696
1458.255000,1.895241
1461.255000,1.923565
1464.255000,1.949428
1467.255000,1.976358
1470.253000,2.001606
1473.254000,2.027667
1476.254000,2.053669
1479.254000,2.079688
1482.254000,2.102553
1485.254000,2.129069
1488.252000,2.152005
1491.252000,2.173493
1494.252000,2.198075
1497.253000,2.224373
1500.253000,2.249849
1503.252000,2.274022
1506.252000,2.300031
1509.252000,2.322981
1512.250000,2.344765
1515.250000,2.366627
1518.251000,2.387054
1521.251000,2.408916
1524.251000,2.426301
1527.249000,2.442911
1530.249000,2.464270
1533.249000,2.481352
1536.249000,2.481692
1539.249000,2.517753
1542.248000,2.539411
1545.248000,2.550633
1548.248000,2.568011
1551.248000,2.587840
1554.248000,2.606612
1557.246000,2.625540
1560.246000,2.641351
1563.247000,2.657328
1566.247000,2.675413
1569.247000,2.690262
1572.247000,2.706124
1575.245000,2.721024
1578.245000,2.728989
1581.245000,2.740911
1584.246000,2.757011
1587.246000,2.767603
1590.244000,2.787626
1593.244000,2.793596
1596.244000,2.806320
1599.244000,2.821376
1602.244000,2.832074
1605.245000,2.838945
1608.243000,2.829776
1611.243000,2.864451
1614.243000,2.865858
1617.243000,2.876434
1620.243000,2.880149
1623.241000,2.883369
1626.241000,2.894165
1629.242000,2.878460
1632.242000,2.897646
1635.242000,2.886806
1638.240000,2.897466
1641.240000,2.914185
1644.240000,2.899037
1647.240000,2.895937
1650.241000,2.914073
1653.239000,2.906040
1656.239000,2.893526
1659.239000,2.905091
1662.239000,2.889025
1665.239000,2.882396
1668.239000,2.882910
1671.238000,2.874510
1674.238000,2.869448
1677.238000,2.865906
1680.238000,2.858254
1683.238000,2.852298
1686.236000,2.841117
1689.236000,2.835552
1692.236000,2.827033
1695.237000,2.816851
1698.237000,2.807030
1701.235000,2.796883
1704.235000,2.787738
1707.235000,2.779835
1710.235000,2.764884
1713.235000,2.754050
1716.236000,2.743097
1719.234000,2.731335
1722.235000,2.716921
1725.235000,2.704574
1728.233000,2.691503
1731.233000,2.676984
1734.233000,2.663294
1737.234000,2.647806
1740.234000,2.633328
1743.232000,2.620655
1746.232000,2.605364
1749.232000,2.589682
1752.232000,2.575561
1755.232000,2.558832
1758.230000,2.543776
1761.231000,2.527720
1764.231000,2.512362
1767.231000,2.493396
1770.231000,2.476569
1773.229000,2.461013
1776.229000,2.445107
1779.229000,2.427875
1782.230000,2.411931
1785.230000,2.391694
1788.230000,2.375425
1791.228000,2.355623
1794.228000,2.339003
1797.228000,2.320639
1800.228000,2.304260
1803.229000,2.284577
1806.227000,2.265017
1809.227000,2.247527
1812.227000,2.226141
1815.227000,2.209259
1818.227000,2.188424
1821.225000,2.169801
1824.225000,2.151325
1827.226000,2.133080
1830.226000,2.114564
1833.226000,2.095316
1836.226000,2.075626
1839.224000,2.057762
1842.224000,2.038446
1845.224000,2.018277
1848.225000,2.001443
1851.225000,1.981787
1854.223000,1.967047
1857.223000,1.946290
1860.223000,1.928620
1863.223000,1.910280
1866.223000,1.892949
1869.222000,1.877057
1872.222000,1.859182
1875.222000,1.842889
1878.222000,1.824083
1881.222000,1.812504
1884.222000,1.795402
1887.220000,1.779455
1890.220000,1.764467
1893.221000,1.747779
1896.221000,1.737832
1899.221000,1.723201
1902.219000,1.705887
1905.219000,1.694339
1908.219000,1.681275
1911.219000,1.668058
1914.220000,1.656612
1917.218000,1.646539
1920.218000,1.634478
1923.218000,1.621628
1926.218000,1.613143
1929.218000,1.605117
1932.218000,1.594072
1935.217000,1.584067
1938.217000,1.578112
1941.217000,1.565775
1944.217000,1.563355
1947.217000,1.556430
1950.215000,1.548482
1953.215000,1.539677
1956.215000,1.532032
1959.216000,1.524495
1962.216000,1.526848
1965.214000,1.530217
1968.214000,1.516316
1971.214000,1.517183
1974.214000,1.522816
1977.213000,1.507386
1980.214000,1.502610
1983.214000,1.502661
1986.214000,1.502426
1989.212000,1.501369
1992.212000,1.499710
1995.212000,1.516034
1998.212000,1.525862
2001.213000,1.504068
2004.211000,1.513848
2007.211000,1.531750
2010.211000,1.528371
2013.211000,1.514277
2016.211000,1.538946
2019.211000,1.545919
2022.209000,1.545079
2025.210000,1.545776
2028.210000,1.539463
2031.210000,1.566455
2034.210000,1.573244
2037.208000,1.577666
2040.208000,1.584258
2043.208000,1.593899
2046.209000,1.602544
2049.209000,1.613609
2052.207000,1.616580
2055.207000,1.627356
2058.207000,1.638741
2061.207000,1.646526
2064.207000,1.656622
2067.208000,1.663458
2070.206000,1.680656
2073.206000,1.680398
2076.206000,1.702212
2079.206000,1.711564
2082.205000,1.723265
2085.205000,1.735316
2088.205000,1.744862
2091.206000,1.762689
2094.204000,1.775029
2097.204000,1.782888
2100.204000,1.799607
2103.204000,1.810380
2106.204000,1.822584
2109.202000,1.833068
2112.203000,1.851082
2115.203000,1.864458
2118.203000,1.874392
2121.203000,1.877696
2124.201000,1.908080
2127.201000,1.923374
2130.201000,1.939345
2133.202000,1.953613
2136.202000,1.967445
2139.202000,1.978677
2142.200000,1.994083
2145.200000,2.008772
2148.200000,2.019630
2151.200000,2.029788
2154.200000,2.048206
2157.199000,2.055763
2160.199000,2.074117
2163.199000,2.086566
2166.199000,2.098025
2169.199000,2.110879
2172.197000,2.112062
2175.197000,2.129674
2178.198000,2.148371
2181.197000,2.156173
2184.197000,2.154412
2187.197000,2.180302
2190.197000,2.193112
2193.197000,2.194947
2196.195000,2.211853
2199.196000,2.226086
2202.196000,2.236747
2205.196000,2.229615
2208.196000,2.261920
2211.196000,2.267233
2214.194000,2.278768
2217.194000,2.292675
2220.194000,2.297458
2223.195000,2.307646
2226.195000,2.315169
2229.193000,2.323457
2232.193000,2.335019
2235.193000,2.338493
2238.193000,2.343154
2241.193000,2.347498
2244.192000,2.358060
2247.192000,2.368680
2250.192000,2.373613
2253.192000,2.377182
2256.192000,2.389267
2259.190000,2.383209
2262.190000,2.400706
2265.191000,2.393408
2268.191000,2.411952
2271.191000,2.407981
2274.191000,2.420175
2277.189000,2.421256
2280.189000,2.422579
2283.189000,2.426202
2286.189000,2.428456
2289.190000,2.432461
2292.188000,2.432695
2295.188000,2.437611
2298.188000,2.433902
2301.188000,2.437781
2304.188000,2.439824
2307.188000,2.438780
2310.187000,2.445963
2313.187000,2.434324
2316.187000,2.430611
2319.187000,2.430554
2322.187000,2.429972
2325.185000,2.429303
2328.185000,2.423071
2331.186000,2.420529
2334.186000,2.419519
2337.186000,2.419495
2340.184000,2.413927
2343.184000,2.401631
2346.184000,2.399551
2349.184000,2.390056
2352.184000,2.389611
2355.183000,2.382360
2358.183000,2.377233
2361.183000,2.370312
2364.183000,2.362486
2367.183000,2.351237
2370.183000,2.340896
2373.181000,2.337935
2376.182000,2.327805
2379.182000,2.318558
2382.182000,2.309822
2385.182000,2.304002
2388.180000,2.296530
2391.180000,2.285658
2394.180000,2.276041
2397.181000,2.267199
2400.181000,2.260608
2403.179000,2.255403
2406.179000,2.238943
2409.179000,2.232365
2412.179000,2.218998
2415.179000,2.213240
2418.179000,2.203976
2421.178000,2.192030
2424.178000,2.184001
2427.178000,2.174285
2430.178000,2.166671
2433.178000,2.152607
2436.176000,2.144431
2439.176000,2.134280
2442.177000,2.127322
2445.177000,2.112388
2448.177000,2.102329
2451.177000,2.093606
2454.175000,2.081310
2457.175000,2.069697
2460.175000,2.058204
2463.176000,2.049851
2466.176000,2.038892
2469.174000,2.026704
2472.174000,2.016574
2475.174000,2.010438
2478.174000,1.995579
2481.174000,1.986214
2484.172000,1.974883
2487.173000,1.967941
2490.173000,1.957570
2493.173000,1.945855
2496.173000,1.935123
2499.171000,1.928028
2502.171000,1.912615
2505.171000,1.904796
2508.172000,1.895251
2511.172000,1.887714
2514.172000,1.877244
2517.170000,1.866240
2520.170000,1.859257
2523.170000,1.850085
2526.170000,1.842559
2529.171000,1.833323
2532.169000,1.824464
2535.169000,1.818423
2538.169000,1.812114
2541.169000,1.805848
2544.169000,1.794209
2547.169000,1.784221
2550.167000,1.776963
2553.168000,1.768794
2556.168000,1.765626
2559.168000,1.752915
2562.168000,1.746229
2565.166000,1.740796
2568.166000,1.734548
2571.166000,1.727045
2574.167000,1.721613
2577.167000,1.715423
2580.165000,1.709208
2583.165000,1.699625
2586.165000,1.696906
2589.165000,1.689121
2592.165000,1.685827
2595.164000,1.679065
2598.164000,1.677444
2601.164000,1.670495
2604.164000,1.670971
2607.164000,1.658737
2610.164000,1.655198
2613.162000,1.655833
2616.162000,1.651710
2619.163000,1.650948
2622.163000,1.648746
2625.163000,1.642351
2628.161000,1.635974
2631.161000,1.633404
2634.161000,1.626771
2637.161000,1.626656
2640.162000,1.631143
2643.160000,1.618943
2646.160000,1.627536
2649.160000,1.630824
2652.160000,1.616281
2655.160000,1.616665
2658.160000,1.615999
2661.159000,1.620139
2664.159000,1.628750
2667.159000,1.639332
2670.159000,1.617865
2673.159000,1.611545
2676.157000,1.614734
2679.157000,1.616369
2682.157000,1.629654
2685.158000,1.632965
2688.158000,1.614669
2691.156000,1.638724
2694.156000,1.640889
2697.156000,1.615893
2700.156000,1.631602
2703.156000,1.645224
2706.155000,1.640801
2709.155000,1.652465
2712.155000,1.637045
2715.155000,1.637555
2718.155000,1.659111
2721.155000,1.647729
2724.153000,1.655684
2727.154000,1.676203
2730.154000,1.676716
2733.154000,1.657628
2736.154000,1.678035
2739.152000,1.680405
2742.152000,1.676788
2745.152000,1.706326
2748.152000,1.702804
2751.153000,1.691596
2754.153000,1.721854
2757.151000,1.727290
2760.151000,1.731944
2763.151000,1.736227
2766.151000,1.727504
2769.151000,1.744485
2772.150000,1.734606
2775.150000,1.763318
2778.150000,1.766605
2781.150000,1.777310
2784.150000,1.772744
2787.148000,1.775603
2790.148000,1.798713
2793.149000,1.802065
2796.149000,1.811066
2799.149000,1.810584
2802.147000,1.825184
2805.147000,1.810767
2808.147000,1.841614
2811.147000,1.850391
2814.147000,1.854015
2817.148000,1.865546
2820.146000,1.876843
2823.146000,1.874021
2826.146000,1.869789
2829.146000,1.897284
2832.146000,1.905150
2835.144000,1.918000
2838.145000,1.914400
2841.145000,1.935449
2844.145000,1.942571
2847.145000,1.954633
2850.143000,1.963522
2853.143000,1.967673
2856.143000,1.973459
2859.144000,1.976627
2862.144000,1.985778
2865.144000,1.998533
2868.142000,1.994474
2871.142000,2.006838
2874.142000,2.019654
2877.142000,2.023621
2880.142000,2.034720
2883.141000,2.019215
2886.141000,2.050909
2889.141000,2.051789
2892.141000,2.058194
2895.141000,2.065900
2898.141000,2.075024
2901.139000,2.061410
2904.140000,2.089809
2907.140000,2.076649
2910.140000,2.094150
2913.140000,2.103797
2916.138000,2.091631
2919.138000,2.110114
2922.137000,2.102489
2925.138000,2.110426
2928.138000,2.121349
2931.138000,2.123851
2934.138000,2.135056
2937.138000,2.125075
2940.136000,2.131598
2943.136000,2.146379
2946.136000,2.138258
2949.137000,2.138849
2952.137000,2.148959
2955.135000,2.150605
2958.135000,2.151050
2961.135000,2.150180
2964.135000,2.156972
2967.135000,2.148585
2970.134000,2.168812
2973.134000,2.157913
2976.134000,2.156051
2979.134000,2.169071
2982.134000,2.155677
2985.134000,2.168027
2988.132000,2.163771
2991.133000,2.149789
2994.133000,2.165940
2997.133000,2.159542
3000.133000,2.150020
3003.131000,2.146165
3006.131000,2.155476
3009.131000,2.159766
3012.131000,2.156567
3015.132000,2.146420
3018.130000,2.152743
3021.130000,2.153195
3024.130000,2.145149
3027.130000,2.150802
3030.130000,2.139988
3033.130000,2.135334
3036.129000,2.140467
3039.129000,2.130405
3042.129000,2.127862
3045.129000,2.125483
3048.129000,2.129844
3051.127000,2.114961
3054.128000,2.113394
3057.129000,2.106758
3060.127000,2.107591
3063.127000,2.103648
3066.127000,2.095255
3069.127000,2.095112
3072.127000,2.090064
3075.125000,2.089091
3078.125000,2.081953
3081.126000,2.073709
3084.126000,2.072108
3087.126000,2.064931
3090.124000,2.062429
3093.124000,2.058105
3096.125000,2.053757
3099.123000,2.049138
3102.124000,2.054597
3105.124000,2.041111
3108.124000,2.032592
3111.124000,2.023526
3114.122000,2.020252
3117.122000,2.012614
3120.122000,2.014154
3123.123000,2.004074
3126.123000,2.001909
3129.123000,2.015479
3132.121000,2.005363
3135.121000,1.984143
3138.121000,1.987118
3141.121000,1.974689
3144.121000,1.971521
3147.120000,1.966391
3150.120000,1.958630
3153.120000,1.964280
3156.120000,1.950373
3159.120000,1.944968
3162.118000,1.941014
3165.118000,1.932842
3168.119000,1.930846
3171.119000,1.924422
3174.119000,1.916443
3177.117000,1.918581
3180.117000,1.908825
3183.117000,1.902281
3186.117000,1.899724
3189.118000,1.896257
3192.118000,1.889519
3195.116000,1.890094
3198.116000,1.884199
3201.116000,1.877784
3204.116000,1.873345
3207.116000,1.868715
3210.114000,1.867362
3213.115000,1.861705
3216.115000,1.860267
3219.115000,1.855028
3222.115000,1.849599
3225.115000,1.849304
3228.113000,1.847954
3231.113000,1.843946
3234.114000,1.843389
3237.114000,1.840917
3240.114000,1.832704
3243.112000,1.830681
3246.112000,1.828886
3249.112000,1.827673
3252.112000,1.825011
3255.113000,1.827673
3258.111000,1.819793
3261.111000,1.819246
3264.111000,1.818831
3267.111000,1.827700
3270.111000,1.828288
3273.111000,1.818861
3276.109000,1.816516
3279.110000,1.816264
3282.110000,1.822196
3285.110000,1.818827
3288.110000,1.813470
3291.108000,1.813147
3294.108000,1.828176
3297.108000,1.827884
3300.109000,1.812997
3303.109000,1.808507
3306.107000,1.808167
3309.107000,1.808507
3312.108000,1.806851
3315.106000,1.803751
3318.106000,1.812066
3321.107000,1.823247
3324.107000,1.816917
3327.107000,1.806895
3330.105000,1.826136
3333.105000,1.808180
3336.105000,1.825895
3339.105000,1.829002
3342.106000,1.823070
3345.104000,1.824535
3348.104000,1.832871
3351.104000,1.817403
3354.104000,1.819830
3357.104000,1.840230
3360.104000,1.834159
3363.102000,1.819548
3366.103000,1.830814
3369.103000,1.848566
3372.103000,1.835767
3375.103000,1.845013
3378.101000,1.848328
3381.101000,1.844272
3384.101000,1.855674
3387.102000,1.865030
3390.102000,1.853563
3393.100000,1.844973
3396.100000,1.857241
3399.100000,1.879593
3402.100000,1.861260
3405.100000,1.862160
3408.101000,1.888843
3411.099000,1.880188
3414.099000,1.887908
3417.099000,1.882931
3420.099000,1.872372
3423.099000,1.897100
3426.097000,1.900799
3429.097000,1.910851
3432.098000,1.914138
3435.098000,1.897576
3438.098000,1.924139
3441.096000,1.930840
3444.096000,1.918554
3447.096000,1.930204
3450.096000,1.941106
3453.097000,1.943526
3456.097000,1.929426
3459.095000,1.942119
3462.095000,1.960850
3465.095000,1.941177
3468.095000,1.941766
3471.095000,1.970668
3474.094000,1.968043
3477.094000,1.966235
3480.094000,1.974540
3483.094000,1.973952
3486.094000,1.981991
3489.092000,1.977626
3492.092000,1.983484
3495.092000,1.971936
3498.093000,1.995888
3501.093000,2.003898
3504.091000,1.994450
3507.091000,1.981131
3510.091000,1.996374
3513.091000,2.012617
3516.091000,2.012998
3519.092000,2.012029
3522.090000,1.997442
3525.090000,2.018532
3528.090000,2.004023
3531.090000,2.008776
3534.090000,2.027571
3537.088000,2.029812
3540.089000,2.015677
3543.089000,2.015435
3546.089000,2.039915
3549.089000,2.015758
3552.087000,2.020307
3555.087000,2.043862
3558.087000,2.019069
3561.087000,2.045038
3564.088000,2.021551
3567.088000,2.046564
3570.086000,2.029560
3573.086000,2.054740
3576.086000,2.055834
3579.086000,2.026405
3582.086000,2.050956
3585.085000,2.039894
3588.085000,2.043134
3591.085000,2.056780
3594.085000,2.053159
3597.085000,2.057874
3600.085000,2.055698
3603.083000,2.037399
3606.084000,2.058255
3609.083000,2.038677
3612.083000,2.048539
3615.083000,2.063680
3618.083000,2.040204
3621.083000,2.048866
3624.081000,2.059401
3627.081000,2.037348
3630.082000,2.052472
3633.082000,2.054818
3636.082000,2.040778
3639.082000,2.043392
3642.080000,2.048709
3645.080000,2.053166
3648.080000,2.052143
3651.081000,2.052418
3654.081000,2.053013
3657.079000,2.049212
3660.079000,2.037195
3663.079000,2.045439
3666.079000,2.055885
3669.079000,2.032898
3672.078000,2.042393
3675.078000,2.057871
3678.078000,2.034037
3681.077000,2.033078
3684.077000,2.043063
3687.077000,2.055379
3690.077000,2.032300
3693.077000,2.025855
3696.076000,2.038038
3699.076000,2.058540
3702.076000,2.028037
3705.076000,2.031335
3708.076000,2.042971
3711.076000,2.051755
3714.074000,2.050939
3717.075000,2.030386
3720.075000,2.020915
3723.075000,2.028802
3726.075000,2.023570
3729.073000,2.018216
3732.073000,2.037644
3735.073000,2.025504
3738.074000,2.012474
3741.074000,2.018746
3744.074000,2.020093
3747.072000,2.012396
3750.072000,2.012498
3753.072000,2.007851
3756.072000,2.008419
3759.072000,2.012682
3762.071000,2.006539
3765.071000,2.004044
3768.071000,2.002585
3771.071000,2.013423
3774.071000,2.020205
3777.069000,1.993084
3780.069000,1.996850
3783.070000,1.993070
3786.070000,1.987607
3789.070000,1.987087
3792.068000,2.007491
3795.068000,1.979398
3798.068000,1.974183
3801.068000,1.971841
3804.069000,1.971674
3807.069000,1.971756
3810.067000,1.970814
3813.067000,1.969811
3816.067000,1.967870
3819.067000,1.962431
3822.067000,1.956832
3825.065000,1.957026
3828.066000,1.950407
3831.066000,1.957899
3834.066000,1.958372
3837.066000,1.941347
3840.064000,1.940532
3843.064000,1.937448
3846.064000,1.937435
3849.065000,1.933790
3852.065000,1.932845
3855.065000,1.924544
3858.063000,1.926991
3861.063000,1.928521
3864.063000,1.915678
3867.063000,1.910263
3870.064000,1.910436
3873.062000,1.902124
3876.062000,1.902356
3879.062000,1.900924
3882.062000,1.897450
3885.062000,1.895465
3888.060000,1.890345
3891.060000,1.905622
3894.061000,1.910151
3897.061000,1.881527
3900.061000,1.879678
3903.059000,1.877026
3906.059000,1.870102
3909.059000,1.869371
3912.059000,1.879940
3915.060000,1.868398
3918.060000,1.869670
3921.058000,1.859937
3924.058000,1.855480
3927.058000,1.849831
3930.058000,1.849793
3933.058000,1.849283
3936.057000,1.848899
3939.057000,1.844748
3942.057000,1.849049
3945.057000,1.846366
3948.057000,1.834166
3951.055000,1.843368
3954.055000,1.838847
3957.055000,1.827588
3960.056000,1.829651
3963.056000,1.846078
3966.056000,1.819371
3969.054000,1.818895
3972.054000,1.833425
3975.054000,1.841342
3978.054000,1.820486
3981.055000,1.833207
3984.053000,1.815057
3987.053000,1.811505
3990.054000,1.810716
3993.052000,1.807732
3996.052000,1.806681
3999.052000,1.817311
4002.053000,1.820072
4005.053000,1.817012
4008.051000,1.802520
4011.051000,1.797696
4014.051000,1.799977
4017.051000,1.806436
4020.051000,1.808503
4023.049000,1.800270
4026.050000,1.798356
4029.050000,1.798363
4032.050000,1.794311
4035.050000,1.800725
4038.050000,1.812399
4041.048000,1.810937
4044.048000,1.793515
4047.049000,1.811791
4050.049000,1.818209
4053.049000,1.801783
4056.047000,1.798475
4059.047000,1.803601
4062.047000,1.817287
4065.047000,1.814293
4068.048000,1.802082
4071.046000,1.813830
4074.046000,1.823862
4077.046000,1.807443
4080.046000,1.814245
4083.046000,1.835583
4086.046000,1.811604
4089.044000,1.820330
4092.045000,1.840251
4095.045000,1.820826
4098.045000,1.824464
4101.045000,1.847988
4104.043000,1.850500
4107.043000,1.829104
4110.043000,1.847063
4113.044000,1.849450
4116.044000,1.849310
4119.042000,1.858724
4122.042000,1.852455
4125.042000,1.863972
4128.042000,1.852244
4131.042000,1.848651
4134.043000,1.876666
4137.041000,1.852207
4140.041000,1.857095
4143.041000,1.870900
4146.041000,1.856653
4149.041000,1.885103
4152.039000,1.889839
4155.039000,1.881041
4158.040000,1.869741
4161.040000,1.892263
4164.040000,1.890464
4167.038000,1.871404
4170.038000,1.889523
4173.038000,1.905779
4176.037000,1.889618
4179.038000,1.884362
4182.038000,1.903831
4185.038000,1.908937
4188.038000,1.915872
4191.036000,1.897627
4194.036000,1.910868
4197.036000,1.924061
4200.037000,1.930806
4203.036000,1.930714
4206.036000,1.934613
4209.036000,1.908553
4212.036000,1.929677
4215.034000,1.941011
4218.034000,1.918469
4221.034000,1.930309
4224.035000,1.953293
4227.035000,1.939372
4230.033000,1.929725
4233.034000,1.948833
4236.034000,1.956978
4239.032000,1.937254
4242.032000,1.955000
4245.033000,1.949493
4248.033000,1.959480
4251.033000,1.972962
4254.031000,1.976372
4257.031000,1.963223
4260.031000,1.976104
4263.031000,1.965130
4266.032000,1.980479
4269.032000,1.992666
4272.030000,1.969427
4275.030000,1.977021
4278.030000,2.000073
4281.030000,1.994369
4284.030000,2.000046
4287.028000,1.982862
4290.029000,2.009126
4293.029000,1.987495
4296.029000,2.008772
4299.028000,1.994369
4302.028000,2.015425
4305.028000,1.998676
4308.028000,1.999509
4311.027000,2.022482
4314.027000,2.003136
4317.027000,2.022163
4320.027000,2.020072
4323.027000,2.008432
4326.025000,2.025175
4329.025000,2.029230
4332.026000,2.017302
4335.026000,2.041686
4338.026000,2.015007
4341.025000,2.022255
4344.025000,2.041489
4347.025000,2.019926
4350.023000,2.041720
4353.023000,2.030478
4356.024000,2.025226
4359.024000,2.045310
4362.024000,2.043046
4365.024000,2.035434
4368.022000,2.055498
4371.022000,2.053479
4374.022000,2.023893
4377.023000,2.052653
4380.023000,2.029159
4383.021000,2.053808
4386.021000,2.031841
4389.021000,2.029444
4392.021000,2.044807
4395.021000,2.050766
4398.020000,2.031841
4401.020000,2.034506
4404.020000,2.044341
4407.020000,2.045191
4410.020000,2.044637
4413.020000,2.044807
4416.018000,2.038606
4419.018000,2.027201
4422.019000,2.032677
4425.019000,2.036543
4428.019000,2.035716
4431.017000,2.028275
4434.017000,2.026181
4437.017000,2.026099
4440.017000,2.022686
4443.018000,2.030770
4446.016000,2.043341
4449.016000,2.046336
4452.016000,2.018457
4455.016000,2.016132
4458.016000,2.014344
4461.016000,2.022476
4464.016000,2.015527
4467.016000,2.036281
4470.014000,2.017798
4473.014000,2.025994
4476.014000,2.042611
4479.014000,2.030508
4482.014000,2.009955
4485.014000,2.011495
4488.013000,2.029240
4491.013000,2.035730
4494.013000,2.024036
4497.013000,2.000573
4500.013000,1.999087
4503.011000,1.995841
4506.011000,2.008494
4509.012000,2.011580
4512.012000,1.994355
4515.012000,1.990157
4518.010000,1.990007
4521.010000,1.983423
4524.010000,1.985156
4527.010000,1.988505
4530.011000,1.998931
4533.009000,1.987998
4536.009000,1.979945
4539.009000,1.977545
4542.009000,1.971681
4545.009000,1.971681
4548.009000,1.971943
4551.007000,1.980819
4554.008000,1.974428
4557.008000,1.964749
4560.008000,1.962444
4563.008000,1.962142
4566.006000,1.958467
4569.006000,1.966639
4572.006000,1.971300
4575.007000,1.958413
4578.007000,1.960599
4581.005000,1.955853
4584.005000,1.948802
4587.005000,1.961975
4590.004000,1.950852
4593.004000,1.940634
4596.005000,1.938594
4599.005000,1.952117
4602.005000,1.949231
4605.005000,1.933430
4608.003000,1.951702
4611.003000,1.950642
4614.003000,1.929222
4617.003000,1.929198
4620.004000,1.924561
4623.002000,1.930792
4626.002000,1.922412
4629.002000,1.927495
4632.002000,1.918411
4635.002000,1.912085
4638.000000,1.913581
4641.001000,1.908777
4644.001000,1.910334
4647.001000,1.906853
4650.001000,1.916025
4652.999000,1.913499
4655.999000,1.899558
4658.999000,1.897437
4662.000000,1.917449
4665.000000,1.912391
4668.000000,1.890444
4670.998000,1.892538
4673.998000,1.894037
4676.998000,1.900445
4679.998000,1.901281
4682.999000,1.889281
4685.997000,1.887401
4688.997000,1.890029
4691.997000,1.881187
4694.997000,1.881293
4697.997000,1.879776
4700.995000,1.878974
4703.995000,1.879899
4706.996000,1.873623
4709.996000,1.879634
4712.996000,1.874521
4715.996000,1.882802
4718.994000,1.897477
4721.994000,1.893850
4724.994000,1.875724
4727.995000,1.882088
4730.995000,1.892222
4733.993000,1.867440
4736.993000,1.869398
4739.993000,1.868847
4742.993000,1.873501
4745.993000,1.895173
4748.991000,1.871842
4751.992000,1.868303
4754.992000,1.867559
4757.992000,1.874205
4760.992000,1.892854
4763.992000,1.877625
4766.990000,1.872301
4769.990000,1.895659
4772.991000,1.874497
4775.991000,1.889642
4778.991000,1.888020
4781.989000,1.870710
4784.989000,1.885980
4787.989000,1.892681
4790.989000,1.880813
4793.990000,1.904854
4796.988000,1.900615
4799.988000,1.884097
4802.988000,1.905898
4805.988000,1.893248
4808.988000,1.880626
4811.988000,1.891892
4814.986000,1.912299
4817.987000,1.912826
4820.987000,1.911266
4823.987000,1.893129
4826.987000,1.912659
4829.985000,1.895526
4832.985000,1.905405
4835.985000,1.918561
4838.986000,1.899697
4841.986000,1.905752
4844.984000,1.927886
4847.984000,1.906782
4850.984000,1.929500
4853.984000,1.924449
4856.984000,1.910378
4859.985000,1.934052
4862.983000,1.935205
4865.983000,1.923201
4868.983000,1.935361
4871.983000,1.944047
4874.983000,1.947079
4877.981000,1.946953
4880.982000,1.936129
4883.982000,1.957923
4886.982000,1.941276
4889.982000,1.962614
4892.980000,1.948921
4895.980000,1.969352
4898.980000,1.951825
4901.980000,1.957502
4904.981000,1.965898
4907.979000,1.968958
4910.979000,1.981957
4913.979000,1.961768
4916.979000,1.981696
4919.979000,1.965348
4922.979000,1.983661
4925.979000,1.975407
4928.979000,1.973785
4931.977000,1.997364
4934.977000,1.978915
4937.977000,1.979047
4940.977000,2.003864
4943.977000,2.009197
4946.977000,2.007657
4949.977000,1.986632
4952.977000,1.999781
4955.977000,2.015918
4958.975000,1.995572
4961.975000,2.017172
4964.975000,2.000559
4967.975000,2.019600
4970.976000,2.013120
4973.974000,2.010989
4976.974000,2.029441
4979.974000,2.010472
4982.974000,2.034435
4985.974000,2.020286
4988.972000,2.030155
4991.973000,2.032409
4994.973000,2.024050
4997.973000,2.049559
5000.973000,2.051102
5003.971000,2.031664
5006.971000,2.045402
5009.971000,2.034007
5012.972000,2.041441
5015.972000,2.050181
5018.972000,2.039425
5021.970000,2.062195
5024.970000,2.059700
5027.970000,2.066410
5030.970000,2.046241
5033.970000,2.043919
5036.969000,2.066886
5039.969000,2.050351
5042.969000,2.065897
5045.969000,2.060203
5048.969000,2.063612
5051.967000,2.073879
5054.967000,2.058350
5057.968000,2.081749
5060.968000,2.067869
5063.968000,2.062790
5066.968000,2.083312
5069.966000,2.076891
5072.966000,2.060539
5075.966000,2.082272
5078.967000,2.081738
5081.967000,2.080419
5084.965000,2.088826
5087.965000,2.063782
5090.965000,2.067539
5093.965000,2.085281
5096.965000,2.072876
5099.963000,2.070738
5102.964000,2.079321
5105.964000,2.085532
5108.964000,2.070150
5111.964000,2.086294
5114.962000,2.100925
5117.962000,2.072216
5120.962000,2.082211
5123.963000,2.088510
5126.963000,2.064071
5129.963000,2.076911
5132.961000,2.092596
5135.961000,2.071996
5138.961000,2.092586
5141.961000,2.070082
5144.962000,2.075582
5147.960000,2.081368
5150.960000,2.080589
5153.960000,2.079400
5156.960000,2.076575
5159.960000,2.073607
5162.960000,2.068192
5165.958000,2.077282
5168.959000,2.089860
5171.959000,2.064214
5174.959000,2.064697
5177.959000,2.076677
5180.959000,2.087011
5183.957000,2.063432
5186.957000,2.068565
5189.958000,2.062504
5192.957000,2.066121
5195.957000,2.073668
5198.957000,2.072033
5201.957000,2.062137
5204.955000,2.060458
5207.955000,2.059363
5210.956000,2.054335
5213.956000,2.053281
5216.956000,2.061440
5219.954000,2.064904
5222.954000,2.062436
5225.954000,2.051544
5228.954000,2.052772
5231.954000,2.048427
5234.953000,2.059764
5237.953000,2.059020
5240.953000,2.047523
5243.953000,2.048403
5246.953000,2.042876
5249.953000,2.055229
5252.951000,2.054233
5255.952000,2.037930
5258.952000,2.052520
5261.952000,2.050100
5264.952000,2.042594
5267.950000,2.032691
5270.950000,2.032487
5273.950000,2.026881
5276.951000,2.052690
5279.951000,2.031987
5282.949000,2.040418
5285.949000,2.048862
5288.949000,2.025046
5291.949000,2.042872
5294.949000,2.049515
5297.949000,2.020932
5300.948000,2.022839
5303.948000,2.017978
5306.948000,2.041516
5309.948000,2.023533
5312.948000,2.012797
5315.946000,2.012580
5318.946000,2.012661
5321.947000,2.016870
5324.947000,2.014847
5327.947000,2.017118
5330.947000,2.040126
5333.945000,2.017601
5336.945000,2.023302
5339.945000,2.024240
5342.946000,2.012525
5345.946000,2.030434
5348.944000,2.011047
5351.944000,2.015384
5354.944000,2.020347
5357.944000,2.028527
5360.944000,2.002449
5363.942000,2.011917
5366.943000,2.024084
5369.943000,2.013729
5372.943000,1.997316
5375.943000,2.002358
5378.941000,2.021415
5381.941000,2.000049
5384.941000,2.012512
5387.942000,2.016125
5390.942000,2.005794
5393.942000,2.014898
5396.940000,1.993233
5399.940000,2.000009
5402.940000,1.998027
5405.940000,1.991962
5408.941000,2.005410
5411.939000,2.006756
5414.939000,1.991812
5417.939000,1.997571
5420.939000,2.002004
5423.939000,2.002028
5426.937000,1.999771
5429.937000,1.993363
5432.938000,1.989127
5435.938000,2.008327
5438.938000,1.998999
5441.938000,1.989157
5444.936000,2.010584
5447.936000,1.992173
5450.936000,1.982722
5453.937000,1.982335
5456.937000,2.003136
5459.935000,1.994478
5462.935000,1.986421
5465.935000,1.995062
5468.935000,2.008409
5471.935000,1.983004
5474.934000,1.990922
5477.934000,1.999369
5480.934000,1.984381
5483.934000,1.992078
5486.934000,1.987135
5489.934000,1.979700
5492.932000,1.978881
5495.932000,1.988270
5498.933000,1.991948
5501.933000,1.983868
5504.933000,1.977151
5507.931000,1.984055
5510.931000,1.995786
5513.931000,1.976202
5516.931000,1.971705
5519.932000,1.975893
5522.930000,1.973850
5525.930000,1.971443
5528.930000,1.978480
5531.930000,1.981798
5534.930000,1.979513
5537.930000,1.969832
5540.929000,1.972752
5543.929000,1.977049
5546.929000,1.970811
5549.929000,1.968030
5552.929000,1.971827
5555.927000,1.975362
5558.927000,1.975509
5561.927000,1.969339
5564.928000,1.961217
5567.928000,1.963097
5570.926000,1.965174
5573.926000,1.960031
5576.926000,1.962118
5579.926000,1.961601
5582.926000,1.956788
5585.925000,1.956880
5588.925000,1.956410
5591.925000,1.959518
5594.925000,1.974414
5597.925000,1.958270
5600.925000,1.960996
5603.923000,1.961850
5606.924000,1.955547
5609.924000,1.966238
5612.924000,1.971936
5615.924000,1.971698
5618.922000,1.961472
5621.922000,1.943146
5624.922000,1.951009
5627.922000,1.943122
5630.923000,1.940470
5633.923000,1.941109
5636.921000,1.935704
5639.921000,1.932944
5642.921000,1.945689
5645.921000,1.954065
5648.921000,1.930211
5651.920000,1.929772
5654.920000,1.928032
5657.920000,1.930897
5660.920000,1.923636
5663.920000,1.930279
5666.918000,1.920757
5669.918000,1.911816
5672.919000,1.911874
5675.919000,1.911126
5678.919000,1.908570
5681.919000,1.910620
5684.917000,1.905922
5687.917000,1.910385
5690.917000,1.900520
5693.917000,1.898038
5696.918000,1.893316
5699.916000,1.891474
5702.916000,1.890736
5705.916000,1.890094
5708.916000,1.889839
5711.916000,1.884566
5714.914000,1.881422
5717.915000,1.880120
5720.915000,1.878213
5723.914000,1.872566
5726.914000,1.869796
5729.914000,1.868133
5732.914000,1.868742
5735.914000,1.867946
5738.913000,1.879848
5741.913000,1.874670
5744.913000,1.856222
5747.913000,1.849436
5750.913000,1.856364
5753.911000,1.853271
5756.911000,1.848637
5759.911000,1.845673
5762.912000,1.847254
5765.912000,1.847726
5768.912000,1.839455
5771.910000,1.846394
5774.910000,1.836039
5777.910000,1.846676
5780.910000,1.858431
5783.911000,1.835590
5786.909000,1.828852
5789.909000,1.827717
5792.909000,1.829077
5795.909000,1.825188
5798.909000,1.834686
5801.907000,1.848940
5804.908000,1.847991
5807.908000,1.832401
5810.908000,1.819908
5813.908000,1.837943
5816.908000,1.840050
5819.906000,1.842059
5822.906000,1.838589
5825.906000,1.820068
5828.907000,1.820180
5831.907000,1.828713
5834.905000,1.835417
5837.905000,1.813348
5840.905000,1.816818
5843.905000,1.812147
5846.905000,1.808507
5849.906000,1.812137
5852.904000,1.817525
5855.904000,1.818678
5858.904000,1.816614
5861.904000,1.812600
5864.904000,1.817542
5867.902000,1.817899
5870.903000,1.818766
5873.903000,1.818314
5876.903000,1.817675
5879.903000,1.814024
5882.901000,1.817600
5885.901000,1.812141
5888.901000,1.815853
5891.901000,1.832881
5894.902000,1.814612
5897.900000,1.813806
5900.900000,1.826942
5903.900000,1.824726
5906.900000,1.812698
5909.900000,1.831205
5912.900000,1.828604
5915.899000,1.815360
5918.899000,1.825484
5921.899000,1.840054
5924.899000,1.822900
5927.899000,1.819582
5930.897000,1.833564
5933.897000,1.840805
5936.898000,1.821775
5939.898000,1.843151
5942.898000,1.830076
5945.896000,1.819004
5948.896000,1.821965
5951.896000,1.846424
5954.896000,1.825518
5957.896000,1.838820
5960.895000,1.854814
5963.895000,1.830290
5966.895000,1.849518
5969.895000,1.852873
5972.895000,1.832646
5975.895000,1.852618
5978.893000,1.859495
5981.894000,1.865424
5984.894000,1.855973
5987.894000,1.847342
5990.894000,1.863330
5993.892000,1.842926
5996.892000,1.859998
5999.892000,1.869027
6002.893000,1.869401
6005.893000,1.868466
6008.893000,1.852448
6011.891000,1.870367
6014.891000,1.850228
6017.891000,1.873164
6020.891000,1.856266
6023.891000,1.859607
6026.890000,1.880905
6029.890000,1.873661
6032.890000,1.863880
6035.890000,1.885103
6038.890000,1.878801
6041.888000,1.878607
6044.888000,1.895560
6047.889000,1.868184
6050.889000,1.882748
6053.889000,1.897253
6056.887000,1.875884
6059.887000,1.874602
6062.887000,1.893976
6065.887000,1.887075
6068.888000,1.884213
6071.888000,1.895893
6074.886000,1.902461
6077.886000,1.887813
6080.886000,1.884430
6083.886000,1.904708
6086.886000,1.903304
6089.884000,1.891226
6092.885000,1.899483
6095.885000,1.912217
6098.885000,1.917167
6101.885000,1.911640
6104.883000,1.893765
6107.883000,1.915287
6110.883000,1.905262
6113.884000,1.894302
6116.884000,1.910973
6119.884000,1.907394
6122.882000,1.899211
6125.882000,1.909851
6128.882000,1.921641
6131.882000,1.897073
6134.883000,1.914815
6137.881000,1.928861
6140.881000,1.922518
6143.881000,1.920063
6146.881000,1.912843
6149.881000,1.909457
6152.879000,1.896345
6155.879000,1.908682
6158.880000,1.921821
6161.880000,1.906394
6164.880000,1.894214
6167.880000,1.899500
6170.878000,1.892946
6173.878000,1.908274
6176.878000,1.906493
6179.879000,1.889951
6182.879000,1.893252
6185.877000,1.891182
6188.877000,1.892103
6191.877000,1.899473
6194.877000,1.888697
6197.877000,1.880769
6200.876000,1.879586
6203.876000,1.877302
6206.876000,1.877672
6209.876000,1.874473
6212.876000,1.869629
6215.876000,1.866114
6218.874000,1.869758
6221.874000,1.875867
6224.875000,1.882326
6227.875000,1.867239
6230.875000,1.865196
6233.873000,1.851710
6236.874000,1.855542
6239.874000,1.859774
6242.872000,1.849232
6245.873000,1.846832
6248.873000,1.849317
6251.873000,1.843766
6254.873000,1.847308
6257.871000,1.830525
6260.871000,1.828499
6263.871000,1.825201
6266.872000,1.823539
6269.872000,1.818753
6272.870000,1.818855
6275.870000,1.834380
6278.870000,1.820459
6281.869000,1.809493
6284.869000,1.803054
6287.869000,1.811627
6290.870000,1.828764
6293.870000,1.810771
6296.868000,1.792818
6299.868000,1.790469
6302.868000,1.784309
6305.868000,1.787644
6308.868000,1.776215
6311.869000,1.777476
6314.867000,1.772778
6317.867000,1.774223
6320.867000,1.767312
6323.867000,1.761767
6326.867000,1.759439
6329.865000,1.759113
6332.866000,1.749703
6335.866000,1.747901
6338.866000,1.745991
6341.866000,1.743281
6344.866000,1.745637
6347.864000,1.762767
6350.864000,1.763430
6353.864000,1.741887
6356.865000,1.736037
6359.865000,1.737094
6362.863000,1.728038
6365.863000,1.733178
6368.863000,1.736761
6371.863000,1.727484
6374.863000,1.731298
6377.862000,1.725053
6380.862000,1.716816
6383.862000,1.717051
6386.862000,1.733885
6389.862000,1.730142
6392.860000,1.714702
6395.860000,1.734881
6398.861000,1.710640
6401.861000,1.706751
6404.861000,1.730890
6407.859000,1.708970
6410.859000,1.714583
6413.859000,1.725488
6416.859000,1.700183
6419.859000,1.697637
6422.859000,1.706319
6425.859000,1.718707
6428.859000,1.711806
6431.857000,1.725390
6434.857000,1.703028
6437.857000,1.725169
6440.857000,1.702593
6443.858000,1.712805
6446.858000,1.724914
6449.856000,1.704262
6452.856000,1.723439
6455.856000,1.703280
6458.856000,1.720539
6461.856000,1.707379
6464.855000,1.724037
6467.855000,1.718645
6470.855000,1.698164
6473.855000,1.719216
6476.855000,1.722344
6479.853000,1.700751
6482.853000,1.711105
6485.854000,1.731900
6488.854000,1.728803
6491.854000,1.709752
6494.852000,1.723391
6497.852000,1.735639
6500.852000,1.717510
6503.852000,1.740993
6506.852000,1.745283
6509.853000,1.730537
6512.851000,1.722901
6515.851000,1.741143
6518.851000,1.742258
6521.851000,1.730496
6524.851000,1.753296
6527.849000,1.736329
6530.850000,1.733586
6533.850000,1.758310
6536.850000,1.747510
6539.850000,1.738117
6542.850000,1.754856
6545.848000,1.759476
6548.848000,1.749288
6551.849000,1.759034
6554.849000,1.759367
6557.849000,1.777976
6560.847000,1.756131
6563.847000,1.759894
6566.847000,1.777592
6569.847000,1.756362
6572.847000,1.777714
6575.846000,1.774896
6578.846000,1.764266
6581.846000,1.776436
6584.846000,1.787454
6587.846000,1.768077
6590.846000,1.776983
6593.844000,1.794215
6596.845000,1.788134
6599.845000,1.795225
6602.845000,1.795650
6605.845000,1.776722
6608.843000,1.800593
6611.843000,1.782882
6614.843000,1.802663
6617.844000,1.787413
6620.843000,1.786138
6623.843000,1.800902
6626.843000,1.798924
6629.843000,1.801191
6632.841000,1.804798
6635.841000,1.795681
6638.841000,1.815945
6641.842000,1.812419
6644.842000,1.820486
6647.840000,1.803863
6650.840000,1.803962
6653.840000,1.818576
6656.840000,1.800362
6659.840000,1.809221
6662.841000,1.825297
6665.839000,1.818780
6668.839000,1.825586
6671.839000,1.820486
6674.839000,1.811080
6677.839000,1.831307
6680.837000,1.809204
6683.837000,1.825541
6686.838000,1.814972
6689.838000,1.812290
6692.838000,1.830032
6695.836000,1.812912
6698.836000,1.809265
6701.836000,1.828458
6704.836000,1.823991
6707.837000,1.814636
6710.837000,1.826684
6713.835000,1.832690
6716.835000,1.825188
6719.835000,1.817682
6722.835000,1.818814
6725.835000,1.819637
6728.834000,1.825616
6731.834000,1.843793
6734.834000,1.828502
6737.834000,1.820650
6740.834000,1.838932
6743.832000,1.834424
6746.832000,1.816965
6749.833000,1.818569
6752.833000,1.818695
6755.833000,1.818729
6758.831000,1.818712
6761.831000,1.818722
6764.831000,1.816961
6767.831000,1.813987
6770.831000,1.823141
6773.832000,1.827856
6776.830000,1.822557
6779.830000,1.819905
6782.830000,1.809622
6785.830000,1.807585
6788.830000,1.808962
6791.828000,1.804873
6794.829000,1.809289
6797.829000,1.809387
6800.829000,1.803523
6803.829000,1.813779
6806.827000,1.823464
6809.827000,1.801160
6812.827000,1.792193
6815.828000,1.802748
6818.828000,1.798706
6821.828000,1.788667
6824.826000,1.786645
6827.826000,1.788766
6830.826000,1.797717
6833.826000,1.780668
6836.826000,1.777419
6839.825000,1.773944
6842.825000,1.772075
6845.825000,1.776735
6848.825000,1.770834
6851.825000,1.777266
6854.823000,1.769124
6857.823000,1.764902
6860.824000,1.765364
6863.824000,1.758953
6866.824000,1.757331
6869.824000,1.758545
6872.822000,1.778272
6875.822000,1.753235
6878.822000,1.751216
6881.823000,1.747293
6884.823000,1.747333
6887.821000,1.746725
